# E (eV)   ldos(E)   pdos(E)    pdos(E)    pdos(E)   
  -4.265  0.102E-08  0.339E-09  0.339E-09  0.339E-09
  -4.245  0.141E-08  0.469E-09  0.469E-09  0.469E-09
  -4.225  0.193E-08  0.645E-09  0.645E-09  0.645E-09
  -4.205  0.265E-08  0.883E-09  0.883E-09  0.883E-09
  -4.185  0.361E-08  0.120E-08  0.120E-08  0.120E-08
  -4.165  0.490E-08  0.163E-08  0.163E-08  0.163E-08
  -4.145  0.663E-08  0.221E-08  0.221E-08  0.221E-08
  -4.125  0.892E-08  0.297E-08  0.297E-08  0.297E-08
  -4.105  0.120E-07  0.399E-08  0.399E-08  0.399E-08
  -4.085  0.160E-07  0.532E-08  0.532E-08  0.532E-08
  -4.065  0.212E-07  0.707E-08  0.707E-08  0.707E-08
  -4.045  0.281E-07  0.936E-08  0.936E-08  0.936E-08
  -4.025  0.370E-07  0.123E-07  0.123E-07  0.123E-07
  -4.005  0.486E-07  0.162E-07  0.162E-07  0.162E-07
  -3.985  0.635E-07  0.212E-07  0.212E-07  0.212E-07
  -3.965  0.826E-07  0.275E-07  0.275E-07  0.275E-07
  -3.945  0.107E-06  0.357E-07  0.357E-07  0.357E-07
  -3.925  0.138E-06  0.461E-07  0.461E-07  0.461E-07
  -3.905  0.178E-06  0.593E-07  0.593E-07  0.593E-07
  -3.885  0.228E-06  0.759E-07  0.759E-07  0.759E-07
  -3.865  0.290E-06  0.968E-07  0.968E-07  0.968E-07
  -3.845  0.369E-06  0.123E-06  0.123E-06  0.123E-06
  -3.825  0.467E-06  0.156E-06  0.156E-06  0.156E-06
  -3.805  0.588E-06  0.196E-06  0.196E-06  0.196E-06
  -3.785  0.738E-06  0.246E-06  0.246E-06  0.246E-06
  -3.765  0.922E-06  0.307E-06  0.307E-06  0.307E-06
  -3.745  0.115E-05  0.383E-06  0.383E-06  0.383E-06
  -3.725  0.142E-05  0.475E-06  0.475E-06  0.475E-06
  -3.705  0.176E-05  0.586E-06  0.586E-06  0.586E-06
  -3.685  0.216E-05  0.721E-06  0.721E-06  0.721E-06
  -3.665  0.265E-05  0.884E-06  0.884E-06  0.884E-06
  -3.645  0.324E-05  0.108E-05  0.108E-05  0.108E-05
  -3.625  0.394E-05  0.131E-05  0.131E-05  0.131E-05
  -3.605  0.478E-05  0.159E-05  0.159E-05  0.159E-05
  -3.585  0.577E-05  0.192E-05  0.192E-05  0.192E-05
  -3.565  0.694E-05  0.231E-05  0.231E-05  0.231E-05
  -3.545  0.831E-05  0.277E-05  0.277E-05  0.277E-05
  -3.525  0.993E-05  0.331E-05  0.331E-05  0.331E-05
  -3.505  0.118E-04  0.394E-05  0.394E-05  0.394E-05
  -3.485  0.140E-04  0.467E-05  0.467E-05  0.467E-05
  -3.465  0.165E-04  0.551E-05  0.551E-05  0.551E-05
  -3.445  0.195E-04  0.649E-05  0.649E-05  0.649E-05
  -3.425  0.228E-04  0.761E-05  0.761E-05  0.761E-05
  -3.405  0.267E-04  0.890E-05  0.890E-05  0.890E-05
  -3.385  0.311E-04  0.104E-04  0.104E-04  0.104E-04
  -3.365  0.361E-04  0.120E-04  0.120E-04  0.120E-04
  -3.345  0.418E-04  0.139E-04  0.139E-04  0.139E-04
  -3.325  0.482E-04  0.161E-04  0.161E-04  0.161E-04
  -3.305  0.554E-04  0.185E-04  0.185E-04  0.185E-04
  -3.285  0.635E-04  0.212E-04  0.212E-04  0.212E-04
  -3.265  0.725E-04  0.242E-04  0.242E-04  0.242E-04
  -3.245  0.825E-04  0.275E-04  0.275E-04  0.275E-04
  -3.225  0.937E-04  0.312E-04  0.312E-04  0.312E-04
  -3.205  0.106E-03  0.353E-04  0.353E-04  0.353E-04
  -3.185  0.120E-03  0.398E-04  0.398E-04  0.398E-04
  -3.165  0.134E-03  0.448E-04  0.448E-04  0.448E-04
  -3.145  0.151E-03  0.503E-04  0.503E-04  0.503E-04
  -3.125  0.169E-03  0.562E-04  0.562E-04  0.562E-04
  -3.105  0.188E-03  0.627E-04  0.627E-04  0.627E-04
  -3.085  0.209E-03  0.697E-04  0.697E-04  0.697E-04
  -3.065  0.232E-03  0.773E-04  0.773E-04  0.773E-04
  -3.045  0.256E-03  0.854E-04  0.854E-04  0.854E-04
  -3.025  0.283E-03  0.942E-04  0.942E-04  0.942E-04
  -3.005  0.311E-03  0.104E-03  0.104E-03  0.104E-03
  -2.985  0.341E-03  0.114E-03  0.114E-03  0.114E-03
  -2.965  0.374E-03  0.125E-03  0.125E-03  0.125E-03
  -2.945  0.408E-03  0.136E-03  0.136E-03  0.136E-03
  -2.925  0.444E-03  0.148E-03  0.148E-03  0.148E-03
  -2.905  0.483E-03  0.161E-03  0.161E-03  0.161E-03
  -2.885  0.523E-03  0.174E-03  0.174E-03  0.174E-03
  -2.865  0.566E-03  0.189E-03  0.189E-03  0.189E-03
  -2.845  0.611E-03  0.204E-03  0.204E-03  0.204E-03
  -2.825  0.659E-03  0.220E-03  0.220E-03  0.220E-03
  -2.805  0.708E-03  0.236E-03  0.236E-03  0.236E-03
  -2.785  0.759E-03  0.253E-03  0.253E-03  0.253E-03
  -2.765  0.813E-03  0.271E-03  0.271E-03  0.271E-03
  -2.745  0.869E-03  0.290E-03  0.290E-03  0.290E-03
  -2.725  0.927E-03  0.309E-03  0.309E-03  0.309E-03
  -2.705  0.987E-03  0.329E-03  0.329E-03  0.329E-03
  -2.685  0.105E-02  0.350E-03  0.350E-03  0.350E-03
  -2.665  0.111E-02  0.371E-03  0.371E-03  0.371E-03
  -2.645  0.118E-02  0.393E-03  0.393E-03  0.393E-03
  -2.625  0.125E-02  0.415E-03  0.415E-03  0.415E-03
  -2.605  0.132E-02  0.439E-03  0.439E-03  0.439E-03
  -2.585  0.139E-02  0.462E-03  0.462E-03  0.462E-03
  -2.565  0.146E-02  0.487E-03  0.487E-03  0.487E-03
  -2.545  0.154E-02  0.512E-03  0.512E-03  0.512E-03
  -2.525  0.161E-02  0.537E-03  0.537E-03  0.537E-03
  -2.505  0.169E-02  0.563E-03  0.563E-03  0.563E-03
  -2.485  0.177E-02  0.590E-03  0.590E-03  0.590E-03
  -2.465  0.185E-02  0.617E-03  0.617E-03  0.617E-03
  -2.445  0.193E-02  0.644E-03  0.644E-03  0.644E-03
  -2.425  0.202E-02  0.672E-03  0.672E-03  0.672E-03
  -2.405  0.210E-02  0.700E-03  0.700E-03  0.700E-03
  -2.385  0.219E-02  0.729E-03  0.729E-03  0.729E-03
  -2.365  0.227E-02  0.758E-03  0.758E-03  0.758E-03
  -2.345  0.236E-02  0.787E-03  0.787E-03  0.787E-03
  -2.325  0.245E-02  0.817E-03  0.817E-03  0.817E-03
  -2.305  0.254E-02  0.847E-03  0.847E-03  0.847E-03
  -2.285  0.263E-02  0.877E-03  0.877E-03  0.877E-03
  -2.265  0.272E-02  0.908E-03  0.908E-03  0.908E-03
  -2.245  0.282E-02  0.939E-03  0.939E-03  0.939E-03
  -2.225  0.291E-02  0.970E-03  0.970E-03  0.970E-03
  -2.205  0.300E-02  0.100E-02  0.100E-02  0.100E-02
  -2.185  0.310E-02  0.103E-02  0.103E-02  0.103E-02
  -2.165  0.319E-02  0.106E-02  0.106E-02  0.106E-02
  -2.145  0.329E-02  0.110E-02  0.110E-02  0.110E-02
  -2.125  0.339E-02  0.113E-02  0.113E-02  0.113E-02
  -2.105  0.348E-02  0.116E-02  0.116E-02  0.116E-02
  -2.085  0.358E-02  0.119E-02  0.119E-02  0.119E-02
  -2.065  0.368E-02  0.123E-02  0.123E-02  0.123E-02
  -2.045  0.378E-02  0.126E-02  0.126E-02  0.126E-02
  -2.025  0.388E-02  0.129E-02  0.129E-02  0.129E-02
  -2.005  0.398E-02  0.133E-02  0.133E-02  0.133E-02
  -1.985  0.408E-02  0.136E-02  0.136E-02  0.136E-02
  -1.965  0.418E-02  0.139E-02  0.139E-02  0.139E-02
  -1.945  0.428E-02  0.143E-02  0.143E-02  0.143E-02
  -1.925  0.439E-02  0.146E-02  0.146E-02  0.146E-02
  -1.905  0.449E-02  0.150E-02  0.150E-02  0.150E-02
  -1.885  0.459E-02  0.153E-02  0.153E-02  0.153E-02
  -1.865  0.470E-02  0.157E-02  0.157E-02  0.157E-02
  -1.845  0.480E-02  0.160E-02  0.160E-02  0.160E-02
  -1.825  0.490E-02  0.163E-02  0.163E-02  0.163E-02
  -1.805  0.501E-02  0.167E-02  0.167E-02  0.167E-02
  -1.785  0.511E-02  0.170E-02  0.170E-02  0.170E-02
  -1.765  0.522E-02  0.174E-02  0.174E-02  0.174E-02
  -1.745  0.533E-02  0.178E-02  0.178E-02  0.178E-02
  -1.725  0.543E-02  0.181E-02  0.181E-02  0.181E-02
  -1.705  0.554E-02  0.185E-02  0.185E-02  0.185E-02
  -1.685  0.565E-02  0.188E-02  0.188E-02  0.188E-02
  -1.665  0.576E-02  0.192E-02  0.192E-02  0.192E-02
  -1.645  0.587E-02  0.196E-02  0.196E-02  0.196E-02
  -1.625  0.598E-02  0.199E-02  0.199E-02  0.199E-02
  -1.605  0.609E-02  0.203E-02  0.203E-02  0.203E-02
  -1.585  0.621E-02  0.207E-02  0.207E-02  0.207E-02
  -1.565  0.632E-02  0.211E-02  0.211E-02  0.211E-02
  -1.545  0.643E-02  0.214E-02  0.214E-02  0.214E-02
  -1.525  0.655E-02  0.218E-02  0.218E-02  0.218E-02
  -1.505  0.666E-02  0.222E-02  0.222E-02  0.222E-02
  -1.485  0.678E-02  0.226E-02  0.226E-02  0.226E-02
  -1.465  0.690E-02  0.230E-02  0.230E-02  0.230E-02
  -1.445  0.702E-02  0.234E-02  0.234E-02  0.234E-02
  -1.425  0.714E-02  0.238E-02  0.238E-02  0.238E-02
  -1.405  0.727E-02  0.242E-02  0.242E-02  0.242E-02
  -1.385  0.739E-02  0.246E-02  0.246E-02  0.246E-02
  -1.365  0.751E-02  0.250E-02  0.250E-02  0.250E-02
  -1.345  0.764E-02  0.255E-02  0.255E-02  0.255E-02
  -1.325  0.777E-02  0.259E-02  0.259E-02  0.259E-02
  -1.305  0.790E-02  0.263E-02  0.263E-02  0.263E-02
  -1.285  0.803E-02  0.268E-02  0.268E-02  0.268E-02
  -1.265  0.817E-02  0.272E-02  0.272E-02  0.272E-02
  -1.245  0.830E-02  0.277E-02  0.277E-02  0.277E-02
  -1.225  0.844E-02  0.281E-02  0.281E-02  0.281E-02
  -1.205  0.858E-02  0.286E-02  0.286E-02  0.286E-02
  -1.185  0.872E-02  0.291E-02  0.291E-02  0.291E-02
  -1.165  0.886E-02  0.295E-02  0.295E-02  0.295E-02
  -1.145  0.901E-02  0.300E-02  0.300E-02  0.300E-02
  -1.125  0.916E-02  0.305E-02  0.305E-02  0.305E-02
  -1.105  0.931E-02  0.310E-02  0.310E-02  0.310E-02
  -1.085  0.946E-02  0.315E-02  0.315E-02  0.315E-02
  -1.065  0.961E-02  0.320E-02  0.320E-02  0.320E-02
  -1.045  0.977E-02  0.326E-02  0.326E-02  0.326E-02
  -1.025  0.993E-02  0.331E-02  0.331E-02  0.331E-02
  -1.005  0.101E-01  0.337E-02  0.337E-02  0.337E-02
  -0.985  0.103E-01  0.342E-02  0.342E-02  0.342E-02
  -0.965  0.104E-01  0.348E-02  0.348E-02  0.348E-02
  -0.945  0.106E-01  0.354E-02  0.354E-02  0.354E-02
  -0.925  0.108E-01  0.360E-02  0.360E-02  0.360E-02
  -0.905  0.110E-01  0.366E-02  0.366E-02  0.366E-02
  -0.885  0.112E-01  0.372E-02  0.372E-02  0.372E-02
  -0.865  0.113E-01  0.378E-02  0.378E-02  0.378E-02
  -0.845  0.115E-01  0.385E-02  0.385E-02  0.385E-02
  -0.825  0.117E-01  0.391E-02  0.391E-02  0.391E-02
  -0.805  0.119E-01  0.398E-02  0.398E-02  0.398E-02
  -0.785  0.121E-01  0.405E-02  0.405E-02  0.405E-02
  -0.765  0.124E-01  0.412E-02  0.412E-02  0.412E-02
  -0.745  0.126E-01  0.419E-02  0.419E-02  0.419E-02
  -0.725  0.128E-01  0.427E-02  0.427E-02  0.427E-02
  -0.705  0.130E-01  0.434E-02  0.434E-02  0.434E-02
  -0.685  0.132E-01  0.442E-02  0.442E-02  0.442E-02
  -0.665  0.135E-01  0.449E-02  0.449E-02  0.449E-02
  -0.645  0.137E-01  0.457E-02  0.457E-02  0.457E-02
  -0.625  0.140E-01  0.465E-02  0.465E-02  0.465E-02
  -0.605  0.142E-01  0.474E-02  0.474E-02  0.474E-02
  -0.585  0.145E-01  0.482E-02  0.482E-02  0.482E-02
  -0.565  0.147E-01  0.491E-02  0.491E-02  0.491E-02
  -0.545  0.150E-01  0.499E-02  0.499E-02  0.499E-02
  -0.525  0.153E-01  0.508E-02  0.508E-02  0.508E-02
  -0.505  0.155E-01  0.518E-02  0.518E-02  0.518E-02
  -0.485  0.158E-01  0.527E-02  0.527E-02  0.527E-02
  -0.465  0.161E-01  0.537E-02  0.537E-02  0.537E-02
  -0.445  0.164E-01  0.547E-02  0.547E-02  0.547E-02
  -0.425  0.167E-01  0.557E-02  0.557E-02  0.557E-02
  -0.405  0.170E-01  0.568E-02  0.568E-02  0.568E-02
  -0.385  0.174E-01  0.579E-02  0.579E-02  0.579E-02
  -0.365  0.177E-01  0.590E-02  0.590E-02  0.590E-02
  -0.345  0.181E-01  0.602E-02  0.602E-02  0.602E-02
  -0.325  0.184E-01  0.614E-02  0.614E-02  0.614E-02
  -0.305  0.188E-01  0.626E-02  0.626E-02  0.626E-02
  -0.285  0.192E-01  0.639E-02  0.639E-02  0.639E-02
  -0.265  0.196E-01  0.652E-02  0.652E-02  0.652E-02
  -0.245  0.200E-01  0.666E-02  0.666E-02  0.666E-02
  -0.225  0.204E-01  0.680E-02  0.680E-02  0.680E-02
  -0.205  0.208E-01  0.694E-02  0.694E-02  0.694E-02
  -0.185  0.213E-01  0.709E-02  0.709E-02  0.709E-02
  -0.165  0.217E-01  0.724E-02  0.724E-02  0.724E-02
  -0.145  0.222E-01  0.740E-02  0.740E-02  0.740E-02
  -0.125  0.227E-01  0.756E-02  0.756E-02  0.756E-02
  -0.105  0.232E-01  0.773E-02  0.773E-02  0.773E-02
  -0.085  0.237E-01  0.790E-02  0.790E-02  0.790E-02
  -0.065  0.242E-01  0.808E-02  0.808E-02  0.808E-02
  -0.045  0.248E-01  0.826E-02  0.826E-02  0.826E-02
  -0.025  0.253E-01  0.845E-02  0.845E-02  0.845E-02
  -0.005  0.259E-01  0.864E-02  0.864E-02  0.864E-02
   0.015  0.265E-01  0.884E-02  0.884E-02  0.884E-02
   0.035  0.272E-01  0.905E-02  0.905E-02  0.905E-02
   0.055  0.278E-01  0.927E-02  0.927E-02  0.927E-02
   0.075  0.285E-01  0.949E-02  0.949E-02  0.949E-02
   0.095  0.292E-01  0.972E-02  0.972E-02  0.972E-02
   0.115  0.299E-01  0.997E-02  0.997E-02  0.997E-02
   0.135  0.307E-01  0.102E-01  0.102E-01  0.102E-01
   0.155  0.314E-01  0.105E-01  0.105E-01  0.105E-01
   0.175  0.323E-01  0.108E-01  0.108E-01  0.108E-01
   0.195  0.331E-01  0.110E-01  0.110E-01  0.110E-01
   0.215  0.340E-01  0.113E-01  0.113E-01  0.113E-01
   0.235  0.349E-01  0.116E-01  0.116E-01  0.116E-01
   0.255  0.359E-01  0.120E-01  0.120E-01  0.120E-01
   0.275  0.369E-01  0.123E-01  0.123E-01  0.123E-01
   0.295  0.380E-01  0.127E-01  0.127E-01  0.127E-01
   0.315  0.391E-01  0.130E-01  0.130E-01  0.130E-01
   0.335  0.402E-01  0.134E-01  0.134E-01  0.134E-01
   0.355  0.414E-01  0.138E-01  0.138E-01  0.138E-01
   0.375  0.426E-01  0.142E-01  0.142E-01  0.142E-01
   0.395  0.439E-01  0.146E-01  0.146E-01  0.146E-01
   0.415  0.452E-01  0.151E-01  0.151E-01  0.151E-01
   0.435  0.465E-01  0.155E-01  0.155E-01  0.155E-01
   0.455  0.479E-01  0.160E-01  0.160E-01  0.160E-01
   0.475  0.493E-01  0.164E-01  0.164E-01  0.164E-01
   0.495  0.507E-01  0.169E-01  0.169E-01  0.169E-01
   0.515  0.521E-01  0.174E-01  0.174E-01  0.174E-01
   0.535  0.536E-01  0.179E-01  0.179E-01  0.179E-01
   0.555  0.550E-01  0.183E-01  0.183E-01  0.183E-01
   0.575  0.565E-01  0.188E-01  0.188E-01  0.188E-01
   0.595  0.579E-01  0.193E-01  0.193E-01  0.193E-01
   0.615  0.594E-01  0.198E-01  0.198E-01  0.198E-01
   0.635  0.608E-01  0.203E-01  0.203E-01  0.203E-01
   0.655  0.622E-01  0.207E-01  0.207E-01  0.207E-01
   0.675  0.636E-01  0.212E-01  0.212E-01  0.212E-01
   0.695  0.650E-01  0.217E-01  0.217E-01  0.217E-01
   0.715  0.664E-01  0.221E-01  0.221E-01  0.221E-01
   0.735  0.677E-01  0.226E-01  0.226E-01  0.226E-01
   0.755  0.690E-01  0.230E-01  0.230E-01  0.230E-01
   0.775  0.702E-01  0.234E-01  0.234E-01  0.234E-01
   0.795  0.714E-01  0.238E-01  0.238E-01  0.238E-01
   0.815  0.725E-01  0.242E-01  0.242E-01  0.242E-01
   0.835  0.736E-01  0.245E-01  0.245E-01  0.245E-01
   0.855  0.747E-01  0.249E-01  0.249E-01  0.249E-01
   0.875  0.757E-01  0.252E-01  0.252E-01  0.252E-01
   0.895  0.766E-01  0.255E-01  0.255E-01  0.255E-01
   0.915  0.775E-01  0.258E-01  0.258E-01  0.258E-01
   0.935  0.784E-01  0.261E-01  0.261E-01  0.261E-01
   0.955  0.791E-01  0.264E-01  0.264E-01  0.264E-01
   0.975  0.799E-01  0.266E-01  0.266E-01  0.266E-01
   0.995  0.806E-01  0.269E-01  0.269E-01  0.269E-01
   1.015  0.812E-01  0.271E-01  0.271E-01  0.271E-01
   1.035  0.818E-01  0.273E-01  0.273E-01  0.273E-01
   1.055  0.823E-01  0.274E-01  0.274E-01  0.274E-01
   1.075  0.828E-01  0.276E-01  0.276E-01  0.276E-01
   1.095  0.832E-01  0.277E-01  0.277E-01  0.277E-01
   1.115  0.835E-01  0.278E-01  0.278E-01  0.278E-01
   1.135  0.838E-01  0.279E-01  0.279E-01  0.279E-01
   1.155  0.841E-01  0.280E-01  0.280E-01  0.280E-01
   1.175  0.843E-01  0.281E-01  0.281E-01  0.281E-01
   1.195  0.844E-01  0.281E-01  0.281E-01  0.281E-01
   1.215  0.845E-01  0.282E-01  0.282E-01  0.282E-01
   1.235  0.845E-01  0.282E-01  0.282E-01  0.282E-01
   1.255  0.845E-01  0.282E-01  0.282E-01  0.282E-01
   1.275  0.844E-01  0.281E-01  0.281E-01  0.281E-01
   1.295  0.843E-01  0.281E-01  0.281E-01  0.281E-01
   1.315  0.842E-01  0.281E-01  0.281E-01  0.281E-01
   1.335  0.840E-01  0.280E-01  0.280E-01  0.280E-01
   1.355  0.838E-01  0.279E-01  0.279E-01  0.279E-01
   1.375  0.835E-01  0.278E-01  0.278E-01  0.278E-01
   1.395  0.832E-01  0.277E-01  0.277E-01  0.277E-01
   1.415  0.829E-01  0.276E-01  0.276E-01  0.276E-01
   1.435  0.826E-01  0.275E-01  0.275E-01  0.275E-01
   1.455  0.823E-01  0.274E-01  0.274E-01  0.274E-01
   1.475  0.820E-01  0.273E-01  0.273E-01  0.273E-01
   1.495  0.816E-01  0.272E-01  0.272E-01  0.272E-01
   1.515  0.813E-01  0.271E-01  0.271E-01  0.271E-01
   1.535  0.810E-01  0.270E-01  0.270E-01  0.270E-01
   1.555  0.808E-01  0.269E-01  0.269E-01  0.269E-01
   1.575  0.805E-01  0.268E-01  0.268E-01  0.268E-01
   1.595  0.803E-01  0.268E-01  0.268E-01  0.268E-01
   1.615  0.801E-01  0.267E-01  0.267E-01  0.267E-01
   1.635  0.799E-01  0.266E-01  0.266E-01  0.266E-01
   1.655  0.797E-01  0.266E-01  0.266E-01  0.266E-01
   1.675  0.796E-01  0.265E-01  0.265E-01  0.265E-01
   1.695  0.795E-01  0.265E-01  0.265E-01  0.265E-01
   1.715  0.794E-01  0.265E-01  0.265E-01  0.265E-01
   1.735  0.793E-01  0.264E-01  0.264E-01  0.264E-01
   1.755  0.792E-01  0.264E-01  0.264E-01  0.264E-01
   1.775  0.792E-01  0.264E-01  0.264E-01  0.264E-01
   1.795  0.791E-01  0.264E-01  0.264E-01  0.264E-01
   1.815  0.790E-01  0.263E-01  0.263E-01  0.263E-01
   1.835  0.789E-01  0.263E-01  0.263E-01  0.263E-01
   1.855  0.787E-01  0.262E-01  0.262E-01  0.262E-01
   1.875  0.786E-01  0.262E-01  0.262E-01  0.262E-01
   1.895  0.784E-01  0.261E-01  0.261E-01  0.261E-01
   1.915  0.781E-01  0.260E-01  0.260E-01  0.260E-01
   1.935  0.778E-01  0.259E-01  0.259E-01  0.259E-01
   1.955  0.775E-01  0.258E-01  0.258E-01  0.258E-01
   1.975  0.771E-01  0.257E-01  0.257E-01  0.257E-01
   1.995  0.766E-01  0.255E-01  0.255E-01  0.255E-01
   2.015  0.762E-01  0.254E-01  0.254E-01  0.254E-01
   2.035  0.756E-01  0.252E-01  0.252E-01  0.252E-01
   2.055  0.750E-01  0.250E-01  0.250E-01  0.250E-01
   2.075  0.744E-01  0.248E-01  0.248E-01  0.248E-01
   2.095  0.738E-01  0.246E-01  0.246E-01  0.246E-01
   2.115  0.731E-01  0.244E-01  0.244E-01  0.244E-01
   2.135  0.724E-01  0.241E-01  0.241E-01  0.241E-01
   2.155  0.717E-01  0.239E-01  0.239E-01  0.239E-01
   2.175  0.710E-01  0.237E-01  0.237E-01  0.237E-01
   2.195  0.703E-01  0.234E-01  0.234E-01  0.234E-01
   2.215  0.696E-01  0.232E-01  0.232E-01  0.232E-01
   2.235  0.690E-01  0.230E-01  0.230E-01  0.230E-01
   2.255  0.683E-01  0.228E-01  0.228E-01  0.228E-01
   2.275  0.677E-01  0.226E-01  0.226E-01  0.226E-01
   2.295  0.671E-01  0.224E-01  0.224E-01  0.224E-01
   2.315  0.666E-01  0.222E-01  0.222E-01  0.222E-01
   2.335  0.661E-01  0.220E-01  0.220E-01  0.220E-01
   2.355  0.656E-01  0.219E-01  0.219E-01  0.219E-01
   2.375  0.652E-01  0.217E-01  0.217E-01  0.217E-01
   2.395  0.647E-01  0.216E-01  0.216E-01  0.216E-01
   2.415  0.643E-01  0.214E-01  0.214E-01  0.214E-01
   2.435  0.640E-01  0.213E-01  0.213E-01  0.213E-01
   2.455  0.636E-01  0.212E-01  0.212E-01  0.212E-01
   2.475  0.632E-01  0.211E-01  0.211E-01  0.211E-01
   2.495  0.629E-01  0.210E-01  0.210E-01  0.210E-01
   2.515  0.625E-01  0.208E-01  0.208E-01  0.208E-01
   2.535  0.620E-01  0.207E-01  0.207E-01  0.207E-01
   2.555  0.616E-01  0.205E-01  0.205E-01  0.205E-01
   2.575  0.611E-01  0.204E-01  0.204E-01  0.204E-01
   2.595  0.606E-01  0.202E-01  0.202E-01  0.202E-01
   2.615  0.600E-01  0.200E-01  0.200E-01  0.200E-01
   2.635  0.594E-01  0.198E-01  0.198E-01  0.198E-01
   2.655  0.587E-01  0.196E-01  0.196E-01  0.196E-01
   2.675  0.579E-01  0.193E-01  0.193E-01  0.193E-01
   2.695  0.571E-01  0.190E-01  0.190E-01  0.190E-01
   2.715  0.563E-01  0.188E-01  0.188E-01  0.188E-01
   2.735  0.554E-01  0.185E-01  0.185E-01  0.185E-01
   2.755  0.545E-01  0.182E-01  0.182E-01  0.182E-01
   2.775  0.536E-01  0.179E-01  0.179E-01  0.179E-01
   2.795  0.526E-01  0.175E-01  0.175E-01  0.175E-01
   2.815  0.516E-01  0.172E-01  0.172E-01  0.172E-01
   2.835  0.507E-01  0.169E-01  0.169E-01  0.169E-01
   2.855  0.498E-01  0.166E-01  0.166E-01  0.166E-01
   2.875  0.489E-01  0.163E-01  0.163E-01  0.163E-01
   2.895  0.480E-01  0.160E-01  0.160E-01  0.160E-01
   2.915  0.472E-01  0.157E-01  0.157E-01  0.157E-01
   2.935  0.465E-01  0.155E-01  0.155E-01  0.155E-01
   2.955  0.459E-01  0.153E-01  0.153E-01  0.153E-01
   2.975  0.453E-01  0.151E-01  0.151E-01  0.151E-01
   2.995  0.448E-01  0.149E-01  0.149E-01  0.149E-01
   3.015  0.445E-01  0.148E-01  0.148E-01  0.148E-01
   3.035  0.442E-01  0.147E-01  0.147E-01  0.147E-01
   3.055  0.441E-01  0.147E-01  0.147E-01  0.147E-01
   3.075  0.440E-01  0.147E-01  0.147E-01  0.147E-01
   3.095  0.441E-01  0.147E-01  0.147E-01  0.147E-01
   3.115  0.442E-01  0.147E-01  0.147E-01  0.147E-01
   3.135  0.445E-01  0.148E-01  0.148E-01  0.148E-01
   3.155  0.449E-01  0.150E-01  0.150E-01  0.150E-01
   3.175  0.453E-01  0.151E-01  0.151E-01  0.151E-01
   3.195  0.458E-01  0.153E-01  0.153E-01  0.153E-01
   3.215  0.464E-01  0.155E-01  0.155E-01  0.155E-01
   3.235  0.471E-01  0.157E-01  0.157E-01  0.157E-01
