# E (eV)   ldos(E)   pdos(E)    pdos(E)    pdos(E)    pdos(E)    pdos(E)   
  -4.265  0.800E-08  0.181E-08  0.146E-08  0.146E-08  0.181E-08  0.146E-08
  -4.245  0.112E-07  0.252E-08  0.204E-08  0.204E-08  0.252E-08  0.204E-08
  -4.225  0.155E-07  0.351E-08  0.284E-08  0.284E-08  0.351E-08  0.284E-08
  -4.205  0.215E-07  0.485E-08  0.393E-08  0.393E-08  0.485E-08  0.393E-08
  -4.185  0.296E-07  0.669E-08  0.542E-08  0.542E-08  0.669E-08  0.542E-08
  -4.165  0.407E-07  0.918E-08  0.744E-08  0.744E-08  0.918E-08  0.744E-08
  -4.145  0.556E-07  0.125E-07  0.102E-07  0.102E-07  0.125E-07  0.102E-07
  -4.125  0.757E-07  0.171E-07  0.138E-07  0.138E-07  0.171E-07  0.138E-07
  -4.105  0.103E-06  0.231E-07  0.188E-07  0.188E-07  0.231E-07  0.188E-07
  -4.085  0.138E-06  0.312E-07  0.253E-07  0.253E-07  0.312E-07  0.253E-07
  -4.065  0.186E-06  0.420E-07  0.341E-07  0.341E-07  0.420E-07  0.341E-07
  -4.045  0.249E-06  0.562E-07  0.456E-07  0.456E-07  0.562E-07  0.456E-07
  -4.025  0.332E-06  0.749E-07  0.609E-07  0.609E-07  0.749E-07  0.609E-07
  -4.005  0.441E-06  0.994E-07  0.808E-07  0.808E-07  0.994E-07  0.808E-07
  -3.985  0.584E-06  0.131E-06  0.107E-06  0.107E-06  0.131E-06  0.107E-06
  -3.965  0.769E-06  0.173E-06  0.141E-06  0.141E-06  0.173E-06  0.141E-06
  -3.945  0.101E-05  0.227E-06  0.185E-06  0.185E-06  0.227E-06  0.185E-06
  -3.925  0.132E-05  0.296E-06  0.241E-06  0.241E-06  0.296E-06  0.241E-06
  -3.905  0.171E-05  0.386E-06  0.314E-06  0.314E-06  0.386E-06  0.314E-06
  -3.885  0.222E-05  0.499E-06  0.407E-06  0.407E-06  0.499E-06  0.407E-06
  -3.865  0.287E-05  0.645E-06  0.526E-06  0.526E-06  0.645E-06  0.526E-06
  -3.845  0.369E-05  0.828E-06  0.676E-06  0.676E-06  0.828E-06  0.676E-06
  -3.825  0.472E-05  0.106E-05  0.866E-06  0.866E-06  0.106E-05  0.866E-06
  -3.805  0.602E-05  0.135E-05  0.111E-05  0.111E-05  0.135E-05  0.111E-05
  -3.785  0.765E-05  0.172E-05  0.141E-05  0.141E-05  0.172E-05  0.141E-05
  -3.765  0.968E-05  0.217E-05  0.178E-05  0.178E-05  0.217E-05  0.178E-05
  -3.745  0.122E-04  0.274E-05  0.224E-05  0.224E-05  0.274E-05  0.224E-05
  -3.725  0.153E-04  0.344E-05  0.282E-05  0.282E-05  0.344E-05  0.282E-05
  -3.705  0.192E-04  0.430E-05  0.353E-05  0.353E-05  0.430E-05  0.353E-05
  -3.685  0.239E-04  0.536E-05  0.440E-05  0.440E-05  0.536E-05  0.440E-05
  -3.665  0.297E-04  0.665E-05  0.546E-05  0.546E-05  0.665E-05  0.546E-05
  -3.645  0.367E-04  0.823E-05  0.676E-05  0.676E-05  0.823E-05  0.676E-05
  -3.625  0.453E-04  0.101E-04  0.833E-05  0.833E-05  0.101E-04  0.833E-05
  -3.605  0.556E-04  0.124E-04  0.102E-04  0.102E-04  0.124E-04  0.102E-04
  -3.585  0.680E-04  0.152E-04  0.125E-04  0.125E-04  0.152E-04  0.125E-04
  -3.565  0.829E-04  0.185E-04  0.153E-04  0.153E-04  0.185E-04  0.153E-04
  -3.545  0.101E-03  0.225E-04  0.185E-04  0.185E-04  0.225E-04  0.185E-04
  -3.525  0.122E-03  0.272E-04  0.224E-04  0.224E-04  0.272E-04  0.224E-04
  -3.505  0.147E-03  0.328E-04  0.271E-04  0.271E-04  0.328E-04  0.271E-04
  -3.485  0.176E-03  0.394E-04  0.325E-04  0.325E-04  0.394E-04  0.325E-04
  -3.465  0.211E-03  0.471E-04  0.389E-04  0.389E-04  0.471E-04  0.389E-04
  -3.445  0.252E-03  0.562E-04  0.465E-04  0.465E-04  0.562E-04  0.465E-04
  -3.425  0.299E-03  0.668E-04  0.553E-04  0.553E-04  0.668E-04  0.553E-04
  -3.405  0.355E-03  0.791E-04  0.655E-04  0.655E-04  0.791E-04  0.655E-04
  -3.385  0.419E-03  0.934E-04  0.774E-04  0.774E-04  0.934E-04  0.774E-04
  -3.365  0.493E-03  0.110E-03  0.911E-04  0.911E-04  0.110E-03  0.911E-04
  -3.345  0.578E-03  0.129E-03  0.107E-03  0.107E-03  0.129E-03  0.107E-03
  -3.325  0.676E-03  0.150E-03  0.125E-03  0.125E-03  0.150E-03  0.125E-03
  -3.305  0.787E-03  0.175E-03  0.146E-03  0.146E-03  0.175E-03  0.146E-03
  -3.285  0.914E-03  0.203E-03  0.169E-03  0.169E-03  0.203E-03  0.169E-03
  -3.265  0.106E-02  0.235E-03  0.196E-03  0.196E-03  0.235E-03  0.196E-03
  -3.245  0.122E-02  0.271E-03  0.226E-03  0.226E-03  0.271E-03  0.226E-03
  -3.225  0.140E-02  0.312E-03  0.260E-03  0.260E-03  0.312E-03  0.260E-03
  -3.205  0.161E-02  0.358E-03  0.298E-03  0.298E-03  0.358E-03  0.298E-03
  -3.185  0.184E-02  0.409E-03  0.341E-03  0.341E-03  0.409E-03  0.341E-03
  -3.165  0.210E-02  0.466E-03  0.389E-03  0.389E-03  0.466E-03  0.389E-03
  -3.145  0.238E-02  0.529E-03  0.442E-03  0.442E-03  0.529E-03  0.442E-03
  -3.125  0.270E-02  0.599E-03  0.501E-03  0.501E-03  0.599E-03  0.501E-03
  -3.105  0.305E-02  0.676E-03  0.567E-03  0.567E-03  0.676E-03  0.567E-03
  -3.085  0.344E-02  0.761E-03  0.639E-03  0.639E-03  0.761E-03  0.639E-03
  -3.065  0.386E-02  0.855E-03  0.718E-03  0.718E-03  0.855E-03  0.718E-03
  -3.045  0.433E-02  0.957E-03  0.804E-03  0.804E-03  0.957E-03  0.804E-03
  -3.025  0.483E-02  0.107E-02  0.899E-03  0.899E-03  0.107E-02  0.899E-03
  -3.005  0.539E-02  0.119E-02  0.100E-02  0.100E-02  0.119E-02  0.100E-02
  -2.985  0.598E-02  0.132E-02  0.111E-02  0.111E-02  0.132E-02  0.111E-02
  -2.965  0.663E-02  0.146E-02  0.123E-02  0.123E-02  0.146E-02  0.123E-02
  -2.945  0.733E-02  0.162E-02  0.137E-02  0.137E-02  0.162E-02  0.137E-02
  -2.925  0.808E-02  0.178E-02  0.151E-02  0.151E-02  0.178E-02  0.151E-02
  -2.905  0.889E-02  0.196E-02  0.166E-02  0.166E-02  0.196E-02  0.166E-02
  -2.885  0.976E-02  0.215E-02  0.182E-02  0.182E-02  0.215E-02  0.182E-02
  -2.865  0.107E-01  0.235E-02  0.199E-02  0.199E-02  0.235E-02  0.199E-02
  -2.845  0.117E-01  0.256E-02  0.218E-02  0.218E-02  0.256E-02  0.218E-02
  -2.825  0.127E-01  0.279E-02  0.237E-02  0.237E-02  0.279E-02  0.237E-02
  -2.805  0.138E-01  0.303E-02  0.258E-02  0.258E-02  0.303E-02  0.258E-02
  -2.785  0.150E-01  0.329E-02  0.280E-02  0.280E-02  0.329E-02  0.280E-02
  -2.765  0.162E-01  0.356E-02  0.303E-02  0.303E-02  0.356E-02  0.303E-02
  -2.745  0.175E-01  0.384E-02  0.328E-02  0.328E-02  0.384E-02  0.328E-02
  -2.725  0.189E-01  0.414E-02  0.354E-02  0.354E-02  0.414E-02  0.354E-02
  -2.705  0.203E-01  0.445E-02  0.381E-02  0.381E-02  0.445E-02  0.381E-02
  -2.685  0.218E-01  0.477E-02  0.409E-02  0.409E-02  0.477E-02  0.409E-02
  -2.665  0.234E-01  0.511E-02  0.438E-02  0.438E-02  0.511E-02  0.438E-02
  -2.645  0.250E-01  0.546E-02  0.469E-02  0.469E-02  0.546E-02  0.469E-02
  -2.625  0.267E-01  0.582E-02  0.501E-02  0.501E-02  0.582E-02  0.501E-02
  -2.605  0.284E-01  0.620E-02  0.534E-02  0.534E-02  0.620E-02  0.534E-02
  -2.585  0.302E-01  0.659E-02  0.569E-02  0.569E-02  0.659E-02  0.569E-02
  -2.565  0.321E-01  0.699E-02  0.604E-02  0.604E-02  0.699E-02  0.604E-02
  -2.545  0.340E-01  0.741E-02  0.641E-02  0.641E-02  0.741E-02  0.641E-02
  -2.525  0.360E-01  0.784E-02  0.679E-02  0.679E-02  0.784E-02  0.679E-02
  -2.505  0.381E-01  0.827E-02  0.718E-02  0.718E-02  0.827E-02  0.718E-02
  -2.485  0.402E-01  0.872E-02  0.758E-02  0.758E-02  0.872E-02  0.758E-02
  -2.465  0.423E-01  0.918E-02  0.799E-02  0.799E-02  0.918E-02  0.799E-02
  -2.445  0.445E-01  0.965E-02  0.841E-02  0.841E-02  0.965E-02  0.841E-02
  -2.425  0.468E-01  0.101E-01  0.884E-02  0.884E-02  0.101E-01  0.884E-02
  -2.405  0.491E-01  0.106E-01  0.929E-02  0.929E-02  0.106E-01  0.929E-02
  -2.385  0.515E-01  0.111E-01  0.974E-02  0.974E-02  0.111E-01  0.974E-02
  -2.365  0.538E-01  0.116E-01  0.102E-01  0.102E-01  0.116E-01  0.102E-01
  -2.345  0.563E-01  0.121E-01  0.107E-01  0.107E-01  0.121E-01  0.107E-01
  -2.325  0.587E-01  0.127E-01  0.111E-01  0.111E-01  0.127E-01  0.111E-01
  -2.305  0.613E-01  0.132E-01  0.116E-01  0.116E-01  0.132E-01  0.116E-01
  -2.285  0.638E-01  0.137E-01  0.121E-01  0.121E-01  0.137E-01  0.121E-01
  -2.265  0.664E-01  0.143E-01  0.126E-01  0.126E-01  0.143E-01  0.126E-01
  -2.245  0.690E-01  0.148E-01  0.131E-01  0.131E-01  0.148E-01  0.131E-01
  -2.225  0.716E-01  0.154E-01  0.136E-01  0.136E-01  0.154E-01  0.136E-01
  -2.205  0.743E-01  0.159E-01  0.141E-01  0.141E-01  0.159E-01  0.141E-01
  -2.185  0.769E-01  0.165E-01  0.147E-01  0.147E-01  0.165E-01  0.147E-01
  -2.165  0.796E-01  0.170E-01  0.152E-01  0.152E-01  0.170E-01  0.152E-01
  -2.145  0.824E-01  0.176E-01  0.157E-01  0.157E-01  0.176E-01  0.157E-01
  -2.125  0.851E-01  0.182E-01  0.163E-01  0.163E-01  0.182E-01  0.163E-01
  -2.105  0.879E-01  0.187E-01  0.168E-01  0.168E-01  0.187E-01  0.168E-01
  -2.085  0.907E-01  0.193E-01  0.173E-01  0.173E-01  0.193E-01  0.173E-01
  -2.065  0.934E-01  0.199E-01  0.179E-01  0.179E-01  0.199E-01  0.179E-01
  -2.045  0.962E-01  0.204E-01  0.184E-01  0.184E-01  0.204E-01  0.184E-01
  -2.025  0.991E-01  0.210E-01  0.190E-01  0.190E-01  0.210E-01  0.190E-01
  -2.005  0.102E+00  0.216E-01  0.196E-01  0.196E-01  0.216E-01  0.196E-01
  -1.985  0.105E+00  0.222E-01  0.201E-01  0.201E-01  0.222E-01  0.201E-01
  -1.965  0.108E+00  0.227E-01  0.207E-01  0.207E-01  0.227E-01  0.207E-01
  -1.945  0.110E+00  0.233E-01  0.212E-01  0.212E-01  0.233E-01  0.212E-01
  -1.925  0.113E+00  0.239E-01  0.218E-01  0.218E-01  0.239E-01  0.218E-01
  -1.905  0.116E+00  0.245E-01  0.224E-01  0.224E-01  0.245E-01  0.224E-01
  -1.885  0.119E+00  0.250E-01  0.230E-01  0.230E-01  0.250E-01  0.230E-01
  -1.865  0.122E+00  0.256E-01  0.235E-01  0.235E-01  0.256E-01  0.235E-01
  -1.845  0.125E+00  0.262E-01  0.241E-01  0.241E-01  0.262E-01  0.241E-01
  -1.825  0.127E+00  0.267E-01  0.247E-01  0.247E-01  0.267E-01  0.247E-01
  -1.805  0.130E+00  0.273E-01  0.252E-01  0.252E-01  0.273E-01  0.252E-01
  -1.785  0.133E+00  0.279E-01  0.258E-01  0.258E-01  0.279E-01  0.258E-01
  -1.765  0.136E+00  0.284E-01  0.264E-01  0.264E-01  0.284E-01  0.264E-01
  -1.745  0.139E+00  0.290E-01  0.270E-01  0.270E-01  0.290E-01  0.270E-01
  -1.725  0.142E+00  0.295E-01  0.275E-01  0.275E-01  0.295E-01  0.275E-01
  -1.705  0.144E+00  0.301E-01  0.281E-01  0.281E-01  0.301E-01  0.281E-01
  -1.685  0.147E+00  0.306E-01  0.287E-01  0.287E-01  0.306E-01  0.287E-01
  -1.665  0.150E+00  0.312E-01  0.292E-01  0.292E-01  0.312E-01  0.292E-01
  -1.645  0.153E+00  0.317E-01  0.298E-01  0.298E-01  0.317E-01  0.298E-01
  -1.625  0.156E+00  0.323E-01  0.304E-01  0.304E-01  0.323E-01  0.304E-01
  -1.605  0.158E+00  0.328E-01  0.309E-01  0.309E-01  0.328E-01  0.309E-01
  -1.585  0.161E+00  0.333E-01  0.315E-01  0.315E-01  0.333E-01  0.315E-01
  -1.565  0.164E+00  0.339E-01  0.321E-01  0.321E-01  0.339E-01  0.321E-01
  -1.545  0.167E+00  0.344E-01  0.326E-01  0.326E-01  0.344E-01  0.326E-01
  -1.525  0.169E+00  0.349E-01  0.332E-01  0.332E-01  0.349E-01  0.332E-01
  -1.505  0.172E+00  0.354E-01  0.337E-01  0.337E-01  0.354E-01  0.337E-01
  -1.485  0.175E+00  0.359E-01  0.343E-01  0.343E-01  0.359E-01  0.343E-01
  -1.465  0.177E+00  0.364E-01  0.348E-01  0.348E-01  0.364E-01  0.348E-01
  -1.445  0.180E+00  0.369E-01  0.354E-01  0.354E-01  0.369E-01  0.354E-01
  -1.425  0.183E+00  0.374E-01  0.359E-01  0.359E-01  0.374E-01  0.359E-01
  -1.405  0.185E+00  0.379E-01  0.365E-01  0.365E-01  0.379E-01  0.365E-01
  -1.385  0.188E+00  0.384E-01  0.370E-01  0.370E-01  0.384E-01  0.370E-01
  -1.365  0.191E+00  0.389E-01  0.376E-01  0.376E-01  0.389E-01  0.376E-01
  -1.345  0.193E+00  0.394E-01  0.381E-01  0.381E-01  0.394E-01  0.381E-01
  -1.325  0.196E+00  0.399E-01  0.386E-01  0.386E-01  0.399E-01  0.386E-01
  -1.305  0.198E+00  0.404E-01  0.392E-01  0.392E-01  0.404E-01  0.392E-01
  -1.285  0.201E+00  0.408E-01  0.397E-01  0.397E-01  0.408E-01  0.397E-01
  -1.265  0.203E+00  0.413E-01  0.402E-01  0.402E-01  0.413E-01  0.402E-01
  -1.245  0.206E+00  0.418E-01  0.407E-01  0.407E-01  0.418E-01  0.407E-01
  -1.225  0.208E+00  0.422E-01  0.412E-01  0.412E-01  0.422E-01  0.412E-01
  -1.205  0.211E+00  0.427E-01  0.418E-01  0.418E-01  0.427E-01  0.418E-01
  -1.185  0.213E+00  0.431E-01  0.423E-01  0.423E-01  0.431E-01  0.423E-01
  -1.165  0.215E+00  0.436E-01  0.428E-01  0.428E-01  0.436E-01  0.428E-01
  -1.145  0.218E+00  0.440E-01  0.433E-01  0.433E-01  0.440E-01  0.433E-01
  -1.125  0.220E+00  0.444E-01  0.437E-01  0.437E-01  0.444E-01  0.437E-01
  -1.105  0.222E+00  0.449E-01  0.442E-01  0.442E-01  0.449E-01  0.442E-01
  -1.085  0.225E+00  0.453E-01  0.447E-01  0.447E-01  0.453E-01  0.447E-01
  -1.065  0.227E+00  0.457E-01  0.452E-01  0.452E-01  0.457E-01  0.452E-01
  -1.045  0.229E+00  0.461E-01  0.457E-01  0.457E-01  0.461E-01  0.457E-01
  -1.025  0.232E+00  0.465E-01  0.462E-01  0.462E-01  0.465E-01  0.462E-01
  -1.005  0.234E+00  0.469E-01  0.466E-01  0.466E-01  0.469E-01  0.466E-01
  -0.985  0.236E+00  0.473E-01  0.471E-01  0.471E-01  0.473E-01  0.471E-01
  -0.965  0.238E+00  0.477E-01  0.476E-01  0.476E-01  0.477E-01  0.476E-01
  -0.945  0.240E+00  0.481E-01  0.480E-01  0.480E-01  0.481E-01  0.480E-01
  -0.925  0.242E+00  0.485E-01  0.485E-01  0.485E-01  0.485E-01  0.485E-01
  -0.905  0.245E+00  0.489E-01  0.490E-01  0.490E-01  0.489E-01  0.490E-01
  -0.885  0.247E+00  0.492E-01  0.494E-01  0.494E-01  0.492E-01  0.494E-01
  -0.865  0.249E+00  0.496E-01  0.499E-01  0.499E-01  0.496E-01  0.499E-01
  -0.845  0.251E+00  0.500E-01  0.504E-01  0.504E-01  0.500E-01  0.504E-01
  -0.825  0.253E+00  0.503E-01  0.508E-01  0.508E-01  0.503E-01  0.508E-01
  -0.805  0.255E+00  0.507E-01  0.513E-01  0.513E-01  0.507E-01  0.513E-01
  -0.785  0.257E+00  0.510E-01  0.517E-01  0.517E-01  0.510E-01  0.517E-01
  -0.765  0.259E+00  0.514E-01  0.522E-01  0.522E-01  0.514E-01  0.522E-01
  -0.745  0.261E+00  0.518E-01  0.527E-01  0.527E-01  0.518E-01  0.527E-01
  -0.725  0.264E+00  0.521E-01  0.531E-01  0.531E-01  0.521E-01  0.531E-01
  -0.705  0.266E+00  0.525E-01  0.535E-01  0.535E-01  0.525E-01  0.535E-01
  -0.685  0.268E+00  0.528E-01  0.540E-01  0.540E-01  0.528E-01  0.540E-01
  -0.665  0.270E+00  0.531E-01  0.544E-01  0.544E-01  0.531E-01  0.544E-01
  -0.645  0.271E+00  0.535E-01  0.548E-01  0.548E-01  0.535E-01  0.548E-01
  -0.625  0.273E+00  0.538E-01  0.553E-01  0.553E-01  0.538E-01  0.553E-01
  -0.605  0.275E+00  0.541E-01  0.557E-01  0.557E-01  0.541E-01  0.557E-01
  -0.585  0.277E+00  0.545E-01  0.561E-01  0.561E-01  0.545E-01  0.561E-01
  -0.565  0.279E+00  0.548E-01  0.565E-01  0.565E-01  0.548E-01  0.565E-01
  -0.545  0.281E+00  0.551E-01  0.569E-01  0.569E-01  0.551E-01  0.569E-01
  -0.525  0.283E+00  0.554E-01  0.573E-01  0.573E-01  0.554E-01  0.573E-01
  -0.505  0.284E+00  0.557E-01  0.577E-01  0.577E-01  0.557E-01  0.577E-01
  -0.485  0.286E+00  0.560E-01  0.581E-01  0.581E-01  0.560E-01  0.581E-01
  -0.465  0.288E+00  0.563E-01  0.585E-01  0.585E-01  0.563E-01  0.585E-01
  -0.445  0.290E+00  0.565E-01  0.588E-01  0.588E-01  0.565E-01  0.588E-01
  -0.425  0.291E+00  0.568E-01  0.592E-01  0.592E-01  0.568E-01  0.592E-01
  -0.405  0.293E+00  0.571E-01  0.596E-01  0.596E-01  0.571E-01  0.596E-01
  -0.385  0.295E+00  0.574E-01  0.600E-01  0.600E-01  0.574E-01  0.600E-01
  -0.365  0.297E+00  0.576E-01  0.604E-01  0.604E-01  0.576E-01  0.604E-01
  -0.345  0.298E+00  0.579E-01  0.608E-01  0.608E-01  0.579E-01  0.608E-01
  -0.325  0.300E+00  0.582E-01  0.613E-01  0.613E-01  0.582E-01  0.613E-01
  -0.305  0.302E+00  0.585E-01  0.617E-01  0.617E-01  0.585E-01  0.617E-01
  -0.285  0.304E+00  0.587E-01  0.621E-01  0.621E-01  0.587E-01  0.621E-01
  -0.265  0.306E+00  0.590E-01  0.625E-01  0.625E-01  0.590E-01  0.625E-01
  -0.245  0.307E+00  0.593E-01  0.629E-01  0.629E-01  0.593E-01  0.629E-01
  -0.225  0.309E+00  0.596E-01  0.634E-01  0.634E-01  0.596E-01  0.634E-01
  -0.205  0.311E+00  0.598E-01  0.638E-01  0.638E-01  0.598E-01  0.638E-01
  -0.185  0.313E+00  0.601E-01  0.642E-01  0.642E-01  0.601E-01  0.642E-01
  -0.165  0.315E+00  0.604E-01  0.646E-01  0.646E-01  0.604E-01  0.646E-01
  -0.145  0.317E+00  0.607E-01  0.650E-01  0.650E-01  0.607E-01  0.650E-01
  -0.125  0.318E+00  0.610E-01  0.654E-01  0.654E-01  0.610E-01  0.654E-01
  -0.105  0.320E+00  0.613E-01  0.659E-01  0.659E-01  0.613E-01  0.659E-01
  -0.085  0.322E+00  0.616E-01  0.662E-01  0.662E-01  0.616E-01  0.662E-01
  -0.065  0.324E+00  0.618E-01  0.666E-01  0.666E-01  0.618E-01  0.666E-01
  -0.045  0.325E+00  0.621E-01  0.670E-01  0.670E-01  0.621E-01  0.670E-01
  -0.025  0.327E+00  0.624E-01  0.674E-01  0.674E-01  0.624E-01  0.674E-01
  -0.005  0.329E+00  0.627E-01  0.677E-01  0.677E-01  0.627E-01  0.677E-01
   0.015  0.330E+00  0.629E-01  0.681E-01  0.681E-01  0.629E-01  0.681E-01
   0.035  0.332E+00  0.632E-01  0.684E-01  0.684E-01  0.632E-01  0.684E-01
   0.055  0.333E+00  0.635E-01  0.687E-01  0.687E-01  0.635E-01  0.687E-01
   0.075  0.335E+00  0.637E-01  0.690E-01  0.690E-01  0.637E-01  0.690E-01
   0.095  0.336E+00  0.640E-01  0.693E-01  0.693E-01  0.640E-01  0.693E-01
   0.115  0.337E+00  0.643E-01  0.696E-01  0.696E-01  0.643E-01  0.696E-01
   0.135  0.339E+00  0.645E-01  0.699E-01  0.699E-01  0.645E-01  0.699E-01
   0.155  0.340E+00  0.648E-01  0.702E-01  0.702E-01  0.648E-01  0.702E-01
   0.175  0.342E+00  0.650E-01  0.705E-01  0.705E-01  0.650E-01  0.705E-01
   0.195  0.343E+00  0.653E-01  0.708E-01  0.708E-01  0.653E-01  0.708E-01
   0.215  0.344E+00  0.656E-01  0.711E-01  0.711E-01  0.656E-01  0.711E-01
   0.235  0.346E+00  0.658E-01  0.714E-01  0.714E-01  0.658E-01  0.714E-01
   0.255  0.347E+00  0.661E-01  0.717E-01  0.717E-01  0.661E-01  0.717E-01
   0.275  0.349E+00  0.664E-01  0.720E-01  0.720E-01  0.664E-01  0.720E-01
   0.295  0.351E+00  0.668E-01  0.723E-01  0.723E-01  0.668E-01  0.723E-01
   0.315  0.352E+00  0.671E-01  0.727E-01  0.727E-01  0.671E-01  0.727E-01
   0.335  0.354E+00  0.674E-01  0.730E-01  0.730E-01  0.674E-01  0.730E-01
   0.355  0.356E+00  0.678E-01  0.734E-01  0.734E-01  0.678E-01  0.734E-01
   0.375  0.357E+00  0.682E-01  0.737E-01  0.737E-01  0.682E-01  0.737E-01
   0.395  0.359E+00  0.686E-01  0.741E-01  0.741E-01  0.686E-01  0.741E-01
   0.415  0.361E+00  0.690E-01  0.744E-01  0.744E-01  0.690E-01  0.744E-01
   0.435  0.363E+00  0.694E-01  0.747E-01  0.747E-01  0.694E-01  0.747E-01
   0.455  0.365E+00  0.698E-01  0.751E-01  0.751E-01  0.698E-01  0.751E-01
   0.475  0.367E+00  0.703E-01  0.754E-01  0.754E-01  0.703E-01  0.754E-01
   0.495  0.369E+00  0.707E-01  0.757E-01  0.757E-01  0.707E-01  0.757E-01
   0.515  0.370E+00  0.712E-01  0.760E-01  0.760E-01  0.712E-01  0.760E-01
   0.535  0.372E+00  0.717E-01  0.763E-01  0.763E-01  0.717E-01  0.763E-01
   0.555  0.374E+00  0.721E-01  0.766E-01  0.766E-01  0.721E-01  0.766E-01
   0.575  0.376E+00  0.726E-01  0.768E-01  0.768E-01  0.726E-01  0.768E-01
   0.595  0.377E+00  0.731E-01  0.770E-01  0.770E-01  0.731E-01  0.770E-01
   0.615  0.378E+00  0.735E-01  0.771E-01  0.771E-01  0.735E-01  0.771E-01
   0.635  0.380E+00  0.740E-01  0.773E-01  0.773E-01  0.740E-01  0.773E-01
   0.655  0.381E+00  0.744E-01  0.774E-01  0.774E-01  0.744E-01  0.774E-01
   0.675  0.382E+00  0.748E-01  0.774E-01  0.774E-01  0.748E-01  0.774E-01
   0.695  0.383E+00  0.752E-01  0.774E-01  0.774E-01  0.752E-01  0.774E-01
   0.715  0.383E+00  0.756E-01  0.774E-01  0.774E-01  0.756E-01  0.774E-01
   0.735  0.384E+00  0.760E-01  0.774E-01  0.774E-01  0.760E-01  0.774E-01
   0.755  0.385E+00  0.763E-01  0.773E-01  0.773E-01  0.763E-01  0.773E-01
   0.775  0.385E+00  0.766E-01  0.772E-01  0.772E-01  0.766E-01  0.772E-01
   0.795  0.385E+00  0.770E-01  0.770E-01  0.770E-01  0.770E-01  0.770E-01
   0.815  0.385E+00  0.772E-01  0.769E-01  0.769E-01  0.772E-01  0.769E-01
   0.835  0.385E+00  0.775E-01  0.767E-01  0.767E-01  0.775E-01  0.767E-01
   0.855  0.385E+00  0.777E-01  0.765E-01  0.765E-01  0.777E-01  0.765E-01
   0.875  0.385E+00  0.779E-01  0.763E-01  0.763E-01  0.779E-01  0.763E-01
   0.895  0.384E+00  0.781E-01  0.760E-01  0.760E-01  0.781E-01  0.760E-01
   0.915  0.384E+00  0.783E-01  0.758E-01  0.758E-01  0.783E-01  0.758E-01
   0.935  0.383E+00  0.784E-01  0.755E-01  0.755E-01  0.784E-01  0.755E-01
   0.955  0.383E+00  0.786E-01  0.753E-01  0.753E-01  0.786E-01  0.753E-01
   0.975  0.382E+00  0.787E-01  0.750E-01  0.750E-01  0.787E-01  0.750E-01
   0.995  0.382E+00  0.787E-01  0.747E-01  0.747E-01  0.787E-01  0.747E-01
   1.015  0.381E+00  0.788E-01  0.745E-01  0.745E-01  0.788E-01  0.745E-01
