# E (eV)   ldos(E)   pdos(E)   
  -4.265  0.730E-06  0.730E-06
  -4.245  0.993E-06  0.993E-06
  -4.225  0.135E-05  0.135E-05
  -4.205  0.181E-05  0.181E-05
  -4.185  0.243E-05  0.243E-05
  -4.165  0.325E-05  0.325E-05
  -4.145  0.433E-05  0.433E-05
  -4.125  0.573E-05  0.573E-05
  -4.105  0.756E-05  0.756E-05
  -4.085  0.992E-05  0.992E-05
  -4.065  0.130E-04  0.130E-04
  -4.045  0.169E-04  0.169E-04
  -4.025  0.218E-04  0.218E-04
  -4.005  0.282E-04  0.282E-04
  -3.985  0.362E-04  0.362E-04
  -3.965  0.462E-04  0.462E-04
  -3.945  0.588E-04  0.588E-04
  -3.925  0.746E-04  0.746E-04
  -3.905  0.941E-04  0.941E-04
  -3.885  0.118E-03  0.118E-03
  -3.865  0.148E-03  0.148E-03
  -3.845  0.184E-03  0.184E-03
  -3.825  0.228E-03  0.228E-03
  -3.805  0.282E-03  0.282E-03
  -3.785  0.347E-03  0.347E-03
  -3.765  0.424E-03  0.424E-03
  -3.745  0.517E-03  0.517E-03
  -3.725  0.628E-03  0.628E-03
  -3.705  0.759E-03  0.759E-03
  -3.685  0.914E-03  0.914E-03
  -3.665  0.110E-02  0.110E-02
  -3.645  0.131E-02  0.131E-02
  -3.625  0.155E-02  0.155E-02
  -3.605  0.184E-02  0.184E-02
  -3.585  0.217E-02  0.217E-02
  -3.565  0.255E-02  0.255E-02
  -3.545  0.298E-02  0.298E-02
  -3.525  0.347E-02  0.347E-02
  -3.505  0.403E-02  0.403E-02
  -3.485  0.466E-02  0.466E-02
  -3.465  0.536E-02  0.536E-02
  -3.445  0.615E-02  0.615E-02
  -3.425  0.702E-02  0.702E-02
  -3.405  0.799E-02  0.799E-02
  -3.385  0.906E-02  0.906E-02
  -3.365  0.102E-01  0.102E-01
  -3.345  0.115E-01  0.115E-01
  -3.325  0.129E-01  0.129E-01
  -3.305  0.144E-01  0.144E-01
  -3.285  0.160E-01  0.160E-01
  -3.265  0.178E-01  0.178E-01
  -3.245  0.197E-01  0.197E-01
  -3.225  0.216E-01  0.216E-01
  -3.205  0.237E-01  0.237E-01
  -3.185  0.260E-01  0.260E-01
  -3.165  0.283E-01  0.283E-01
  -3.145  0.307E-01  0.307E-01
  -3.125  0.333E-01  0.333E-01
  -3.105  0.359E-01  0.359E-01
  -3.085  0.386E-01  0.386E-01
  -3.065  0.414E-01  0.414E-01
  -3.045  0.443E-01  0.443E-01
  -3.025  0.472E-01  0.472E-01
  -3.005  0.502E-01  0.502E-01
  -2.985  0.532E-01  0.532E-01
  -2.965  0.562E-01  0.562E-01
  -2.945  0.592E-01  0.592E-01
  -2.925  0.623E-01  0.623E-01
  -2.905  0.653E-01  0.653E-01
  -2.885  0.682E-01  0.682E-01
  -2.865  0.712E-01  0.712E-01
  -2.845  0.741E-01  0.741E-01
  -2.825  0.769E-01  0.769E-01
  -2.805  0.797E-01  0.797E-01
  -2.785  0.823E-01  0.823E-01
  -2.765  0.849E-01  0.849E-01
  -2.745  0.874E-01  0.874E-01
  -2.725  0.898E-01  0.898E-01
  -2.705  0.920E-01  0.920E-01
  -2.685  0.942E-01  0.942E-01
  -2.665  0.962E-01  0.962E-01
  -2.645  0.981E-01  0.981E-01
  -2.625  0.999E-01  0.999E-01
  -2.605  0.102E+00  0.102E+00
  -2.585  0.103E+00  0.103E+00
  -2.565  0.104E+00  0.104E+00
  -2.545  0.106E+00  0.106E+00
  -2.525  0.107E+00  0.107E+00
  -2.505  0.108E+00  0.108E+00
  -2.485  0.109E+00  0.109E+00
  -2.465  0.110E+00  0.110E+00
  -2.445  0.110E+00  0.110E+00
  -2.425  0.111E+00  0.111E+00
  -2.405  0.111E+00  0.111E+00
  -2.385  0.112E+00  0.112E+00
  -2.365  0.112E+00  0.112E+00
  -2.345  0.112E+00  0.112E+00
  -2.325  0.112E+00  0.112E+00
  -2.305  0.112E+00  0.112E+00
  -2.285  0.112E+00  0.112E+00
  -2.265  0.112E+00  0.112E+00
  -2.245  0.111E+00  0.111E+00
  -2.225  0.111E+00  0.111E+00
  -2.205  0.111E+00  0.111E+00
  -2.185  0.110E+00  0.110E+00
  -2.165  0.110E+00  0.110E+00
  -2.145  0.109E+00  0.109E+00
  -2.125  0.109E+00  0.109E+00
  -2.105  0.108E+00  0.108E+00
  -2.085  0.107E+00  0.107E+00
  -2.065  0.107E+00  0.107E+00
  -2.045  0.106E+00  0.106E+00
  -2.025  0.105E+00  0.105E+00
  -2.005  0.104E+00  0.104E+00
  -1.985  0.103E+00  0.103E+00
  -1.965  0.102E+00  0.102E+00
  -1.945  0.102E+00  0.102E+00
  -1.925  0.101E+00  0.101E+00
  -1.905  0.996E-01  0.996E-01
  -1.885  0.986E-01  0.986E-01
  -1.865  0.976E-01  0.976E-01
  -1.845  0.966E-01  0.966E-01
  -1.825  0.955E-01  0.955E-01
  -1.805  0.945E-01  0.945E-01
  -1.785  0.934E-01  0.934E-01
  -1.765  0.923E-01  0.923E-01
  -1.745  0.912E-01  0.912E-01
  -1.725  0.901E-01  0.901E-01
  -1.705  0.890E-01  0.890E-01
  -1.685  0.879E-01  0.879E-01
  -1.665  0.868E-01  0.868E-01
  -1.645  0.856E-01  0.856E-01
  -1.625  0.845E-01  0.845E-01
  -1.605  0.834E-01  0.834E-01
  -1.585  0.822E-01  0.822E-01
  -1.565  0.811E-01  0.811E-01
  -1.545  0.800E-01  0.800E-01
  -1.525  0.788E-01  0.788E-01
  -1.505  0.777E-01  0.777E-01
  -1.485  0.766E-01  0.766E-01
  -1.465  0.755E-01  0.755E-01
  -1.445  0.744E-01  0.744E-01
  -1.425  0.733E-01  0.733E-01
  -1.405  0.722E-01  0.722E-01
  -1.385  0.711E-01  0.711E-01
  -1.365  0.701E-01  0.701E-01
  -1.345  0.690E-01  0.690E-01
  -1.325  0.679E-01  0.679E-01
  -1.305  0.669E-01  0.669E-01
  -1.285  0.659E-01  0.659E-01
  -1.265  0.649E-01  0.649E-01
  -1.245  0.639E-01  0.639E-01
  -1.225  0.629E-01  0.629E-01
  -1.205  0.619E-01  0.619E-01
  -1.185  0.609E-01  0.609E-01
  -1.165  0.600E-01  0.600E-01
  -1.145  0.590E-01  0.590E-01
  -1.125  0.581E-01  0.581E-01
  -1.105  0.572E-01  0.572E-01
  -1.085  0.563E-01  0.563E-01
  -1.065  0.554E-01  0.554E-01
  -1.045  0.545E-01  0.545E-01
  -1.025  0.536E-01  0.536E-01
  -1.005  0.528E-01  0.528E-01
  -0.985  0.520E-01  0.520E-01
  -0.965  0.511E-01  0.511E-01
  -0.945  0.503E-01  0.503E-01
  -0.925  0.495E-01  0.495E-01
  -0.905  0.487E-01  0.487E-01
  -0.885  0.480E-01  0.480E-01
  -0.865  0.472E-01  0.472E-01
  -0.845  0.465E-01  0.465E-01
  -0.825  0.457E-01  0.457E-01
  -0.805  0.450E-01  0.450E-01
  -0.785  0.443E-01  0.443E-01
  -0.765  0.436E-01  0.436E-01
  -0.745  0.429E-01  0.429E-01
  -0.725  0.423E-01  0.423E-01
  -0.705  0.416E-01  0.416E-01
  -0.685  0.410E-01  0.410E-01
  -0.665  0.403E-01  0.403E-01
  -0.645  0.397E-01  0.397E-01
  -0.625  0.391E-01  0.391E-01
  -0.605  0.385E-01  0.385E-01
  -0.585  0.378E-01  0.378E-01
  -0.565  0.372E-01  0.372E-01
  -0.545  0.366E-01  0.366E-01
  -0.525  0.361E-01  0.361E-01
  -0.505  0.355E-01  0.355E-01
  -0.485  0.349E-01  0.349E-01
  -0.465  0.343E-01  0.343E-01
  -0.445  0.338E-01  0.338E-01
  -0.425  0.332E-01  0.332E-01
  -0.405  0.327E-01  0.327E-01
  -0.385  0.321E-01  0.321E-01
  -0.365  0.316E-01  0.316E-01
  -0.345  0.310E-01  0.310E-01
  -0.325  0.305E-01  0.305E-01
  -0.305  0.300E-01  0.300E-01
  -0.285  0.295E-01  0.295E-01
  -0.265  0.290E-01  0.290E-01
  -0.245  0.285E-01  0.285E-01
  -0.225  0.281E-01  0.281E-01
  -0.205  0.276E-01  0.276E-01
  -0.185  0.271E-01  0.271E-01
  -0.165  0.267E-01  0.267E-01
  -0.145  0.262E-01  0.262E-01
  -0.125  0.258E-01  0.258E-01
  -0.105  0.253E-01  0.253E-01
  -0.085  0.249E-01  0.249E-01
  -0.065  0.244E-01  0.244E-01
  -0.045  0.240E-01  0.240E-01
  -0.025  0.236E-01  0.236E-01
  -0.005  0.231E-01  0.231E-01
   0.015  0.227E-01  0.227E-01
   0.035  0.223E-01  0.223E-01
   0.055  0.219E-01  0.219E-01
   0.075  0.214E-01  0.214E-01
   0.095  0.210E-01  0.210E-01
   0.115  0.206E-01  0.206E-01
   0.135  0.202E-01  0.202E-01
   0.155  0.198E-01  0.198E-01
   0.175  0.193E-01  0.193E-01
   0.195  0.189E-01  0.189E-01
   0.215  0.186E-01  0.186E-01
   0.235  0.182E-01  0.182E-01
   0.255  0.178E-01  0.178E-01
   0.275  0.174E-01  0.174E-01
   0.295  0.171E-01  0.171E-01
   0.315  0.167E-01  0.167E-01
   0.335  0.164E-01  0.164E-01
   0.355  0.160E-01  0.160E-01
   0.375  0.157E-01  0.157E-01
   0.395  0.154E-01  0.154E-01
   0.415  0.151E-01  0.151E-01
   0.435  0.148E-01  0.148E-01
   0.455  0.145E-01  0.145E-01
   0.475  0.142E-01  0.142E-01
   0.495  0.140E-01  0.140E-01
   0.515  0.137E-01  0.137E-01
   0.535  0.134E-01  0.134E-01
   0.555  0.132E-01  0.132E-01
   0.575  0.129E-01  0.129E-01
   0.595  0.126E-01  0.126E-01
   0.615  0.124E-01  0.124E-01
   0.635  0.121E-01  0.121E-01
   0.655  0.119E-01  0.119E-01
   0.675  0.116E-01  0.116E-01
   0.695  0.114E-01  0.114E-01
   0.715  0.111E-01  0.111E-01
   0.735  0.109E-01  0.109E-01
   0.755  0.106E-01  0.106E-01
   0.775  0.104E-01  0.104E-01
   0.795  0.101E-01  0.101E-01
   0.815  0.991E-02  0.991E-02
   0.835  0.969E-02  0.969E-02
   0.855  0.947E-02  0.947E-02
   0.875  0.927E-02  0.927E-02
   0.895  0.907E-02  0.907E-02
   0.915  0.888E-02  0.888E-02
   0.935  0.871E-02  0.871E-02
   0.955  0.854E-02  0.854E-02
   0.975  0.838E-02  0.838E-02
   0.995  0.823E-02  0.823E-02
   1.015  0.810E-02  0.810E-02
   1.035  0.797E-02  0.797E-02
   1.055  0.784E-02  0.784E-02
   1.075  0.773E-02  0.773E-02
   1.095  0.762E-02  0.762E-02
   1.115  0.751E-02  0.751E-02
   1.135  0.741E-02  0.741E-02
   1.155  0.732E-02  0.732E-02
   1.175  0.722E-02  0.722E-02
   1.195  0.713E-02  0.713E-02
   1.215  0.704E-02  0.704E-02
   1.235  0.694E-02  0.694E-02
   1.255  0.685E-02  0.685E-02
   1.275  0.675E-02  0.675E-02
   1.295  0.666E-02  0.666E-02
   1.315  0.656E-02  0.656E-02
   1.335  0.646E-02  0.646E-02
   1.355  0.637E-02  0.637E-02
   1.375  0.627E-02  0.627E-02
   1.395  0.618E-02  0.618E-02
   1.415  0.609E-02  0.609E-02
   1.435  0.600E-02  0.600E-02
   1.455  0.592E-02  0.592E-02
   1.475  0.584E-02  0.584E-02
   1.495  0.577E-02  0.577E-02
   1.515  0.571E-02  0.571E-02
   1.535  0.565E-02  0.565E-02
   1.555  0.561E-02  0.561E-02
   1.575  0.557E-02  0.557E-02
   1.595  0.554E-02  0.554E-02
   1.615  0.552E-02  0.552E-02
   1.635  0.550E-02  0.550E-02
   1.655  0.550E-02  0.550E-02
   1.675  0.550E-02  0.550E-02
   1.695  0.551E-02  0.551E-02
   1.715  0.552E-02  0.552E-02
   1.735  0.554E-02  0.554E-02
   1.755  0.555E-02  0.555E-02
   1.775  0.557E-02  0.557E-02
   1.795  0.559E-02  0.559E-02
   1.815  0.561E-02  0.561E-02
   1.835  0.563E-02  0.563E-02
   1.855  0.564E-02  0.564E-02
   1.875  0.565E-02  0.565E-02
   1.895  0.565E-02  0.565E-02
   1.915  0.565E-02  0.565E-02
   1.935  0.564E-02  0.564E-02
   1.955  0.563E-02  0.563E-02
   1.975  0.561E-02  0.561E-02
   1.995  0.559E-02  0.559E-02
   2.015  0.556E-02  0.556E-02
   2.035  0.554E-02  0.554E-02
   2.055  0.551E-02  0.551E-02
   2.075  0.548E-02  0.548E-02
   2.095  0.546E-02  0.546E-02
   2.115  0.544E-02  0.544E-02
   2.135  0.543E-02  0.543E-02
   2.155  0.543E-02  0.543E-02
   2.175  0.543E-02  0.543E-02
   2.195  0.544E-02  0.544E-02
   2.215  0.547E-02  0.547E-02
   2.235  0.551E-02  0.551E-02
   2.255  0.556E-02  0.556E-02
   2.275  0.562E-02  0.562E-02
   2.295  0.569E-02  0.569E-02
   2.315  0.578E-02  0.578E-02
   2.335  0.588E-02  0.588E-02
   2.355  0.598E-02  0.598E-02
   2.375  0.610E-02  0.610E-02
   2.395  0.622E-02  0.622E-02
   2.415  0.634E-02  0.634E-02
   2.435  0.646E-02  0.646E-02
   2.455  0.659E-02  0.659E-02
   2.475  0.671E-02  0.671E-02
   2.495  0.682E-02  0.682E-02
   2.515  0.693E-02  0.693E-02
   2.535  0.703E-02  0.703E-02
   2.555  0.711E-02  0.711E-02
   2.575  0.719E-02  0.719E-02
   2.595  0.725E-02  0.725E-02
   2.615  0.729E-02  0.729E-02
   2.635  0.733E-02  0.733E-02
   2.655  0.734E-02  0.734E-02
   2.675  0.735E-02  0.735E-02
   2.695  0.734E-02  0.734E-02
   2.715  0.732E-02  0.732E-02
   2.735  0.730E-02  0.730E-02
   2.755  0.727E-02  0.727E-02
   2.775  0.723E-02  0.723E-02
   2.795  0.720E-02  0.720E-02
   2.815  0.717E-02  0.717E-02
   2.835  0.715E-02  0.715E-02
   2.855  0.714E-02  0.714E-02
   2.875  0.715E-02  0.715E-02
   2.895  0.717E-02  0.717E-02
   2.915  0.722E-02  0.722E-02
   2.935  0.729E-02  0.729E-02
   2.955  0.739E-02  0.739E-02
   2.975  0.752E-02  0.752E-02
   2.995  0.768E-02  0.768E-02
   3.015  0.788E-02  0.788E-02
   3.035  0.811E-02  0.811E-02
   3.055  0.838E-02  0.838E-02
   3.075  0.869E-02  0.869E-02
   3.095  0.904E-02  0.904E-02
   3.115  0.942E-02  0.942E-02
   3.135  0.985E-02  0.985E-02
   3.155  0.103E-01  0.103E-01
   3.175  0.108E-01  0.108E-01
   3.195  0.114E-01  0.114E-01
   3.215  0.120E-01  0.120E-01
   3.235  0.126E-01  0.126E-01
   3.255  0.133E-01  0.133E-01
   3.275  0.140E-01  0.140E-01
   3.295  0.148E-01  0.148E-01
   3.315  0.157E-01  0.157E-01
   3.335  0.166E-01  0.166E-01
   3.355  0.176E-01  0.176E-01
   3.375  0.187E-01  0.187E-01
   3.395  0.198E-01  0.198E-01
   3.415  0.211E-01  0.211E-01
   3.435  0.224E-01  0.224E-01
   3.455  0.239E-01  0.239E-01
   3.475  0.254E-01  0.254E-01
   3.495  0.271E-01  0.271E-01
   3.515  0.290E-01  0.290E-01
   3.535  0.309E-01  0.309E-01
   3.555  0.330E-01  0.330E-01
   3.575  0.353E-01  0.353E-01
   3.595  0.377E-01  0.377E-01
   3.615  0.403E-01  0.403E-01
   3.635  0.431E-01  0.431E-01
   3.655  0.460E-01  0.460E-01
   3.675  0.490E-01  0.490E-01
   3.695  0.522E-01  0.522E-01
   3.715  0.556E-01  0.556E-01
   3.735  0.591E-01  0.591E-01
   3.755  0.627E-01  0.627E-01
   3.775  0.664E-01  0.664E-01
   3.795  0.702E-01  0.702E-01
   3.815  0.741E-01  0.741E-01
   3.835  0.781E-01  0.781E-01
   3.855  0.821E-01  0.821E-01
   3.875  0.861E-01  0.861E-01
   3.895  0.901E-01  0.901E-01
   3.915  0.942E-01  0.942E-01
   3.935  0.982E-01  0.982E-01
   3.955  0.102E+00  0.102E+00
   3.975  0.106E+00  0.106E+00
   3.995  0.110E+00  0.110E+00
   4.015  0.113E+00  0.113E+00
   4.035  0.117E+00  0.117E+00
   4.055  0.120E+00  0.120E+00
   4.075  0.124E+00  0.124E+00
   4.095  0.127E+00  0.127E+00
   4.115  0.130E+00  0.130E+00
   4.135  0.133E+00  0.133E+00
   4.155  0.135E+00  0.135E+00
   4.175  0.138E+00  0.138E+00
   4.195  0.140E+00  0.140E+00
   4.215  0.142E+00  0.142E+00
   4.235  0.144E+00  0.144E+00
   4.255  0.146E+00  0.146E+00
   4.275  0.147E+00  0.147E+00
   4.295  0.149E+00  0.149E+00
   4.315  0.150E+00  0.150E+00
   4.335  0.151E+00  0.151E+00
   4.355  0.152E+00  0.152E+00
   4.375  0.153E+00  0.153E+00
   4.395  0.153E+00  0.153E+00
   4.415  0.154E+00  0.154E+00
   4.435  0.154E+00  0.154E+00
   4.455  0.154E+00  0.154E+00
   4.475  0.154E+00  0.154E+00
   4.495  0.154E+00  0.154E+00
   4.515  0.154E+00  0.154E+00
   4.535  0.154E+00  0.154E+00
   4.555  0.154E+00  0.154E+00
   4.575  0.153E+00  0.153E+00
   4.595  0.153E+00  0.153E+00
   4.615  0.152E+00  0.152E+00
   4.635  0.152E+00  0.152E+00
   4.655  0.151E+00  0.151E+00
   4.675  0.150E+00  0.150E+00
   4.695  0.149E+00  0.149E+00
   4.715  0.148E+00  0.148E+00
   4.735  0.147E+00  0.147E+00
   4.755  0.146E+00  0.146E+00
   4.775  0.145E+00  0.145E+00
   4.795  0.144E+00  0.144E+00
   4.815  0.142E+00  0.142E+00
   4.835  0.141E+00  0.141E+00
   4.855  0.140E+00  0.140E+00
   4.875  0.138E+00  0.138E+00
   4.895  0.137E+00  0.137E+00
   4.915  0.135E+00  0.135E+00
   4.935  0.133E+00  0.133E+00
   4.955  0.132E+00  0.132E+00
   4.975  0.130E+00  0.130E+00
   4.995  0.129E+00  0.129E+00
   5.015  0.127E+00  0.127E+00
   5.035  0.125E+00  0.125E+00
   5.055  0.124E+00  0.124E+00
   5.075  0.122E+00  0.122E+00
   5.095  0.121E+00  0.121E+00
   5.115  0.119E+00  0.119E+00
   5.135  0.118E+00  0.118E+00
   5.155  0.116E+00  0.116E+00
   5.175  0.115E+00  0.115E+00
   5.195  0.113E+00  0.113E+00
   5.215  0.112E+00  0.112E+00
   5.235  0.110E+00  0.110E+00
   5.255  0.108E+00  0.108E+00
   5.275  0.107E+00  0.107E+00
   5.295  0.105E+00  0.105E+00
   5.315  0.104E+00  0.104E+00
   5.335  0.102E+00  0.102E+00
   5.355  0.101E+00  0.101E+00
   5.375  0.993E-01  0.993E-01
   5.395  0.977E-01  0.977E-01
   5.415  0.962E-01  0.962E-01
   5.435  0.946E-01  0.946E-01
   5.455  0.931E-01  0.931E-01
   5.475  0.916E-01  0.916E-01
   5.495  0.902E-01  0.902E-01
   5.515  0.888E-01  0.888E-01
   5.535  0.874E-01  0.874E-01
   5.555  0.861E-01  0.861E-01
   5.575  0.849E-01  0.849E-01
   5.595  0.837E-01  0.837E-01
   5.615  0.826E-01  0.826E-01
   5.635  0.816E-01  0.816E-01
   5.655  0.807E-01  0.807E-01
   5.675  0.798E-01  0.798E-01
   5.695  0.790E-01  0.790E-01
   5.715  0.784E-01  0.784E-01
   5.735  0.777E-01  0.777E-01
   5.755  0.772E-01  0.772E-01
   5.775  0.767E-01  0.767E-01
   5.795  0.762E-01  0.762E-01
   5.815  0.758E-01  0.758E-01
   5.835  0.755E-01  0.755E-01
   5.855  0.751E-01  0.751E-01
   5.875  0.749E-01  0.749E-01
   5.895  0.746E-01  0.746E-01
   5.915  0.744E-01  0.744E-01
   5.935  0.742E-01  0.742E-01
   5.955  0.741E-01  0.741E-01
   5.975  0.740E-01  0.740E-01
   5.995  0.739E-01  0.739E-01
   6.015  0.739E-01  0.739E-01
   6.035  0.740E-01  0.740E-01
   6.055  0.741E-01  0.741E-01
   6.075  0.744E-01  0.744E-01
   6.095  0.747E-01  0.747E-01
   6.115  0.751E-01  0.751E-01
   6.135  0.757E-01  0.757E-01
   6.155  0.763E-01  0.763E-01
   6.175  0.771E-01  0.771E-01
   6.195  0.781E-01  0.781E-01
   6.215  0.792E-01  0.792E-01
   6.235  0.805E-01  0.805E-01
   6.255  0.820E-01  0.820E-01
   6.275  0.836E-01  0.836E-01
   6.295  0.853E-01  0.853E-01
   6.315  0.872E-01  0.872E-01
   6.335  0.893E-01  0.893E-01
   6.355  0.915E-01  0.915E-01
   6.375  0.938E-01  0.938E-01
   6.395  0.963E-01  0.963E-01
   6.415  0.988E-01  0.988E-01
   6.435  0.101E+00  0.101E+00
   6.455  0.104E+00  0.104E+00
   6.475  0.107E+00  0.107E+00
   6.495  0.110E+00  0.110E+00
   6.515  0.113E+00  0.113E+00
   6.535  0.115E+00  0.115E+00
   6.555  0.118E+00  0.118E+00
   6.575  0.121E+00  0.121E+00
   6.595  0.124E+00  0.124E+00
   6.615  0.127E+00  0.127E+00
   6.635  0.129E+00  0.129E+00
   6.655  0.132E+00  0.132E+00
   6.675  0.135E+00  0.135E+00
   6.695  0.137E+00  0.137E+00
   6.715  0.140E+00  0.140E+00
   6.735  0.142E+00  0.142E+00
   6.755  0.144E+00  0.144E+00
   6.775  0.146E+00  0.146E+00
   6.795  0.149E+00  0.149E+00
   6.815  0.150E+00  0.150E+00
   6.835  0.152E+00  0.152E+00
   6.855  0.154E+00  0.154E+00
   6.875  0.156E+00  0.156E+00
   6.895  0.157E+00  0.157E+00
   6.915  0.158E+00  0.158E+00
   6.935  0.160E+00  0.160E+00
   6.955  0.161E+00  0.161E+00
   6.975  0.161E+00  0.161E+00
   6.995  0.162E+00  0.162E+00
   7.015  0.163E+00  0.163E+00
   7.035  0.163E+00  0.163E+00
   7.055  0.163E+00  0.163E+00
   7.075  0.163E+00  0.163E+00
   7.095  0.163E+00  0.163E+00
   7.115  0.162E+00  0.162E+00
   7.135  0.162E+00  0.162E+00
   7.155  0.161E+00  0.161E+00
   7.175  0.160E+00  0.160E+00
   7.195  0.159E+00  0.159E+00
   7.215  0.157E+00  0.157E+00
   7.235  0.156E+00  0.156E+00
   7.255  0.154E+00  0.154E+00
   7.275  0.152E+00  0.152E+00
   7.295  0.151E+00  0.151E+00
   7.315  0.149E+00  0.149E+00
   7.335  0.146E+00  0.146E+00
   7.355  0.144E+00  0.144E+00
   7.375  0.142E+00  0.142E+00
   7.395  0.140E+00  0.140E+00
   7.415  0.137E+00  0.137E+00
   7.435  0.135E+00  0.135E+00
   7.455  0.133E+00  0.133E+00
   7.475  0.130E+00  0.130E+00
   7.495  0.128E+00  0.128E+00
   7.515  0.126E+00  0.126E+00
   7.535  0.124E+00  0.124E+00
   7.555  0.121E+00  0.121E+00
   7.575  0.119E+00  0.119E+00
   7.595  0.117E+00  0.117E+00
   7.615  0.115E+00  0.115E+00
   7.635  0.113E+00  0.113E+00
   7.655  0.112E+00  0.112E+00
   7.675  0.110E+00  0.110E+00
   7.695  0.108E+00  0.108E+00
   7.715  0.106E+00  0.106E+00
   7.735  0.105E+00  0.105E+00
   7.755  0.103E+00  0.103E+00
   7.775  0.101E+00  0.101E+00
   7.795  0.998E-01  0.998E-01
   7.815  0.983E-01  0.983E-01
   7.835  0.967E-01  0.967E-01
   7.855  0.952E-01  0.952E-01
   7.875  0.937E-01  0.937E-01
   7.895  0.922E-01  0.922E-01
   7.915  0.907E-01  0.907E-01
   7.935  0.891E-01  0.891E-01
   7.955  0.876E-01  0.876E-01
   7.975  0.860E-01  0.860E-01
   7.995  0.845E-01  0.845E-01
   8.015  0.829E-01  0.829E-01
   8.035  0.812E-01  0.812E-01
   8.055  0.796E-01  0.796E-01
   8.075  0.780E-01  0.780E-01
   8.095  0.763E-01  0.763E-01
   8.115  0.747E-01  0.747E-01
   8.135  0.730E-01  0.730E-01
   8.155  0.713E-01  0.713E-01
   8.175  0.696E-01  0.696E-01
   8.195  0.680E-01  0.680E-01
   8.215  0.663E-01  0.663E-01
   8.235  0.647E-01  0.647E-01
   8.255  0.631E-01  0.631E-01
   8.275  0.615E-01  0.615E-01
   8.295  0.600E-01  0.600E-01
   8.315  0.584E-01  0.584E-01
   8.335  0.570E-01  0.570E-01
   8.355  0.555E-01  0.555E-01
   8.375  0.541E-01  0.541E-01
   8.395  0.528E-01  0.528E-01
   8.415  0.515E-01  0.515E-01
   8.435  0.502E-01  0.502E-01
   8.455  0.490E-01  0.490E-01
   8.475  0.479E-01  0.479E-01
   8.495  0.468E-01  0.468E-01
   8.515  0.458E-01  0.458E-01
   8.535  0.448E-01  0.448E-01
   8.555  0.439E-01  0.439E-01
   8.575  0.431E-01  0.431E-01
   8.595  0.423E-01  0.423E-01
