# E (eV)   ldos(E)   pdos(E)    pdos(E)    pdos(E)    pdos(E)    pdos(E)    pdos(E)    pdos(E)   
  -4.265  0.249E-11  0.593E-12  0.363E-12  0.363E-12  0.224E-12  0.411E-13  0.455E-12  0.455E-12
  -4.245  0.345E-11  0.816E-12  0.504E-12  0.504E-12  0.316E-12  0.581E-13  0.629E-12  0.629E-12
  -4.225  0.476E-11  0.112E-11  0.696E-12  0.696E-12  0.444E-12  0.818E-13  0.865E-12  0.865E-12
  -4.205  0.654E-11  0.152E-11  0.958E-12  0.958E-12  0.620E-12  0.115E-12  0.118E-11  0.118E-11
  -4.185  0.894E-11  0.207E-11  0.131E-11  0.131E-11  0.862E-12  0.160E-12  0.161E-11  0.161E-11
  -4.165  0.122E-10  0.279E-11  0.179E-11  0.179E-11  0.119E-11  0.223E-12  0.219E-11  0.219E-11
  -4.145  0.165E-10  0.376E-11  0.244E-11  0.244E-11  0.165E-11  0.309E-12  0.296E-11  0.296E-11
  -4.125  0.223E-10  0.503E-11  0.330E-11  0.330E-11  0.226E-11  0.427E-12  0.399E-11  0.399E-11
  -4.105  0.300E-10  0.671E-11  0.445E-11  0.445E-11  0.309E-11  0.587E-12  0.535E-11  0.535E-11
  -4.085  0.402E-10  0.891E-11  0.598E-11  0.598E-11  0.421E-11  0.803E-12  0.715E-11  0.715E-11
  -4.065  0.536E-10  0.118E-10  0.799E-11  0.799E-11  0.572E-11  0.110E-11  0.951E-11  0.951E-11
  -4.045  0.712E-10  0.155E-10  0.106E-10  0.106E-10  0.773E-11  0.149E-11  0.126E-10  0.126E-10
  -4.025  0.942E-10  0.203E-10  0.141E-10  0.141E-10  0.104E-10  0.201E-11  0.166E-10  0.166E-10
  -4.005  0.124E-09  0.265E-10  0.187E-10  0.187E-10  0.139E-10  0.271E-11  0.218E-10  0.218E-10
  -3.985  0.163E-09  0.345E-10  0.246E-10  0.246E-10  0.186E-10  0.364E-11  0.285E-10  0.285E-10
  -3.965  0.213E-09  0.446E-10  0.322E-10  0.322E-10  0.247E-10  0.486E-11  0.372E-10  0.372E-10
  -3.945  0.277E-09  0.575E-10  0.420E-10  0.420E-10  0.327E-10  0.648E-11  0.482E-10  0.482E-10
  -3.925  0.359E-09  0.738E-10  0.546E-10  0.546E-10  0.431E-10  0.859E-11  0.623E-10  0.623E-10
  -3.905  0.464E-09  0.944E-10  0.708E-10  0.708E-10  0.566E-10  0.113E-10  0.802E-10  0.802E-10
  -3.885  0.597E-09  0.120E-09  0.913E-10  0.913E-10  0.740E-10  0.149E-10  0.103E-09  0.103E-09
  -3.865  0.766E-09  0.152E-09  0.117E-09  0.117E-09  0.964E-10  0.196E-10  0.131E-09  0.131E-09
  -3.845  0.977E-09  0.192E-09  0.150E-09  0.150E-09  0.125E-09  0.256E-10  0.167E-09  0.167E-09
  -3.825  0.124E-08  0.242E-09  0.192E-09  0.192E-09  0.162E-09  0.333E-10  0.212E-09  0.212E-09
  -3.805  0.157E-08  0.302E-09  0.243E-09  0.243E-09  0.208E-09  0.431E-10  0.267E-09  0.267E-09
  -3.785  0.199E-08  0.377E-09  0.308E-09  0.308E-09  0.267E-09  0.556E-10  0.336E-09  0.336E-09
  -3.765  0.250E-08  0.468E-09  0.388E-09  0.388E-09  0.341E-09  0.715E-10  0.420E-09  0.420E-09
  -3.745  0.313E-08  0.579E-09  0.488E-09  0.488E-09  0.433E-09  0.917E-10  0.524E-09  0.524E-09
  -3.725  0.390E-08  0.713E-09  0.610E-09  0.610E-09  0.549E-09  0.117E-09  0.651E-09  0.651E-09
  -3.705  0.485E-08  0.875E-09  0.761E-09  0.761E-09  0.693E-09  0.149E-09  0.806E-09  0.806E-09
  -3.685  0.601E-08  0.107E-08  0.945E-09  0.945E-09  0.871E-09  0.189E-09  0.995E-09  0.995E-09
  -3.665  0.741E-08  0.130E-08  0.117E-08  0.117E-08  0.109E-08  0.238E-09  0.122E-08  0.122E-08
  -3.645  0.911E-08  0.158E-08  0.144E-08  0.144E-08  0.136E-08  0.299E-09  0.150E-08  0.150E-08
  -3.625  0.112E-07  0.190E-08  0.177E-08  0.177E-08  0.169E-08  0.375E-09  0.182E-08  0.182E-08
  -3.605  0.136E-07  0.229E-08  0.217E-08  0.217E-08  0.209E-08  0.468E-09  0.222E-08  0.222E-08
  -3.585  0.166E-07  0.275E-08  0.264E-08  0.264E-08  0.258E-08  0.582E-09  0.268E-08  0.268E-08
  -3.565  0.201E-07  0.328E-08  0.321E-08  0.321E-08  0.318E-08  0.722E-09  0.324E-08  0.324E-08
  -3.545  0.242E-07  0.390E-08  0.389E-08  0.389E-08  0.389E-08  0.892E-09  0.389E-08  0.389E-08
  -3.525  0.292E-07  0.462E-08  0.470E-08  0.470E-08  0.474E-08  0.110E-08  0.466E-08  0.466E-08
  -3.505  0.350E-07  0.545E-08  0.565E-08  0.565E-08  0.576E-08  0.135E-08  0.557E-08  0.557E-08
  -3.485  0.418E-07  0.641E-08  0.677E-08  0.677E-08  0.698E-08  0.164E-08  0.662E-08  0.662E-08
  -3.465  0.498E-07  0.751E-08  0.808E-08  0.808E-08  0.842E-08  0.200E-08  0.785E-08  0.785E-08
  -3.445  0.591E-07  0.877E-08  0.962E-08  0.962E-08  0.101E-07  0.243E-08  0.928E-08  0.928E-08
  -3.425  0.699E-07  0.102E-07  0.114E-07  0.114E-07  0.121E-07  0.294E-08  0.109E-07  0.109E-07
  -3.405  0.825E-07  0.118E-07  0.135E-07  0.135E-07  0.145E-07  0.354E-08  0.128E-07  0.128E-07
  -3.385  0.969E-07  0.137E-07  0.159E-07  0.159E-07  0.172E-07  0.425E-08  0.150E-07  0.150E-07
  -3.365  0.114E-06  0.157E-07  0.187E-07  0.187E-07  0.204E-07  0.509E-08  0.175E-07  0.175E-07
  -3.345  0.133E-06  0.181E-07  0.218E-07  0.218E-07  0.241E-07  0.608E-08  0.203E-07  0.203E-07
  -3.325  0.154E-06  0.207E-07  0.255E-07  0.255E-07  0.284E-07  0.723E-08  0.236E-07  0.236E-07
  -3.305  0.179E-06  0.235E-07  0.296E-07  0.296E-07  0.333E-07  0.857E-08  0.272E-07  0.272E-07
  -3.285  0.207E-06  0.267E-07  0.344E-07  0.344E-07  0.389E-07  0.101E-07  0.313E-07  0.313E-07
  -3.265  0.239E-06  0.303E-07  0.397E-07  0.397E-07  0.453E-07  0.119E-07  0.359E-07  0.359E-07
  -3.245  0.275E-06  0.342E-07  0.457E-07  0.457E-07  0.527E-07  0.140E-07  0.411E-07  0.411E-07
  -3.225  0.315E-06  0.385E-07  0.525E-07  0.525E-07  0.609E-07  0.164E-07  0.469E-07  0.469E-07
  -3.205  0.360E-06  0.432E-07  0.601E-07  0.601E-07  0.703E-07  0.191E-07  0.534E-07  0.534E-07
  -3.185  0.410E-06  0.483E-07  0.686E-07  0.686E-07  0.808E-07  0.222E-07  0.605E-07  0.605E-07
  -3.165  0.465E-06  0.539E-07  0.781E-07  0.781E-07  0.926E-07  0.257E-07  0.684E-07  0.684E-07
  -3.145  0.527E-06  0.599E-07  0.886E-07  0.886E-07  0.106E-06  0.298E-07  0.772E-07  0.772E-07
  -3.125  0.595E-06  0.665E-07  0.100E-06  0.100E-06  0.121E-06  0.343E-07  0.868E-07  0.868E-07
  -3.105  0.671E-06  0.736E-07  0.113E-06  0.113E-06  0.137E-06  0.394E-07  0.973E-07  0.973E-07
  -3.085  0.753E-06  0.812E-07  0.127E-06  0.127E-06  0.155E-06  0.451E-07  0.109E-06  0.109E-06
  -3.065  0.844E-06  0.893E-07  0.143E-06  0.143E-06  0.175E-06  0.516E-07  0.121E-06  0.121E-06
  -3.045  0.943E-06  0.980E-07  0.160E-06  0.160E-06  0.197E-06  0.587E-07  0.135E-06  0.135E-06
  -3.025  0.105E-05  0.107E-06  0.178E-06  0.178E-06  0.220E-06  0.667E-07  0.150E-06  0.150E-06
  -3.005  0.117E-05  0.117E-06  0.198E-06  0.198E-06  0.247E-06  0.756E-07  0.166E-06  0.166E-06
  -2.985  0.129E-05  0.128E-06  0.220E-06  0.220E-06  0.275E-06  0.853E-07  0.183E-06  0.183E-06
  -2.965  0.143E-05  0.139E-06  0.243E-06  0.243E-06  0.306E-06  0.961E-07  0.201E-06  0.201E-06
  -2.945  0.158E-05  0.151E-06  0.268E-06  0.268E-06  0.339E-06  0.108E-06  0.221E-06  0.221E-06
  -2.925  0.173E-05  0.163E-06  0.295E-06  0.295E-06  0.374E-06  0.121E-06  0.243E-06  0.243E-06
  -2.905  0.190E-05  0.177E-06  0.324E-06  0.324E-06  0.413E-06  0.135E-06  0.265E-06  0.265E-06
  -2.885  0.208E-05  0.191E-06  0.355E-06  0.355E-06  0.454E-06  0.151E-06  0.289E-06  0.289E-06
  -2.865  0.228E-05  0.205E-06  0.388E-06  0.388E-06  0.497E-06  0.168E-06  0.315E-06  0.315E-06
  -2.845  0.248E-05  0.221E-06  0.423E-06  0.423E-06  0.544E-06  0.186E-06  0.342E-06  0.342E-06
  -2.825  0.270E-05  0.237E-06  0.460E-06  0.460E-06  0.593E-06  0.206E-06  0.371E-06  0.371E-06
  -2.805  0.292E-05  0.254E-06  0.499E-06  0.499E-06  0.645E-06  0.227E-06  0.401E-06  0.401E-06
  -2.785  0.317E-05  0.272E-06  0.539E-06  0.539E-06  0.700E-06  0.250E-06  0.432E-06  0.432E-06
  -2.765  0.342E-05  0.290E-06  0.582E-06  0.582E-06  0.758E-06  0.274E-06  0.466E-06  0.466E-06
  -2.745  0.368E-05  0.310E-06  0.627E-06  0.627E-06  0.818E-06  0.301E-06  0.500E-06  0.500E-06
  -2.725  0.396E-05  0.330E-06  0.674E-06  0.674E-06  0.881E-06  0.329E-06  0.537E-06  0.537E-06
  -2.705  0.425E-05  0.351E-06  0.723E-06  0.723E-06  0.947E-06  0.359E-06  0.575E-06  0.575E-06
  -2.685  0.456E-05  0.374E-06  0.774E-06  0.774E-06  0.101E-05  0.391E-06  0.614E-06  0.614E-06
  -2.665  0.487E-05  0.397E-06  0.827E-06  0.827E-06  0.109E-05  0.424E-06  0.655E-06  0.655E-06
  -2.645  0.520E-05  0.421E-06  0.882E-06  0.882E-06  0.116E-05  0.460E-06  0.697E-06  0.697E-06
  -2.625  0.554E-05  0.446E-06  0.938E-06  0.938E-06  0.123E-05  0.498E-06  0.741E-06  0.741E-06
  -2.605  0.589E-05  0.473E-06  0.996E-06  0.996E-06  0.131E-05  0.537E-06  0.787E-06  0.787E-06
  -2.585  0.625E-05  0.500E-06  0.106E-05  0.106E-05  0.139E-05  0.579E-06  0.833E-06  0.833E-06
  -2.565  0.662E-05  0.529E-06  0.112E-05  0.112E-05  0.147E-05  0.623E-06  0.882E-06  0.882E-06
  -2.545  0.700E-05  0.559E-06  0.118E-05  0.118E-05  0.155E-05  0.668E-06  0.931E-06  0.931E-06
  -2.525  0.739E-05  0.590E-06  0.124E-05  0.124E-05  0.163E-05  0.716E-06  0.982E-06  0.982E-06
  -2.505  0.779E-05  0.623E-06  0.131E-05  0.131E-05  0.172E-05  0.766E-06  0.103E-05  0.103E-05
  -2.485  0.820E-05  0.657E-06  0.137E-05  0.137E-05  0.180E-05  0.817E-06  0.109E-05  0.109E-05
  -2.465  0.861E-05  0.693E-06  0.144E-05  0.144E-05  0.189E-05  0.871E-06  0.114E-05  0.114E-05
  -2.445  0.904E-05  0.730E-06  0.151E-05  0.151E-05  0.197E-05  0.927E-06  0.120E-05  0.120E-05
  -2.425  0.947E-05  0.768E-06  0.158E-05  0.158E-05  0.206E-05  0.985E-06  0.125E-05  0.125E-05
  -2.405  0.991E-05  0.808E-06  0.164E-05  0.164E-05  0.215E-05  0.104E-05  0.131E-05  0.131E-05
  -2.385  0.104E-04  0.850E-06  0.171E-05  0.171E-05  0.223E-05  0.111E-05  0.137E-05  0.137E-05
  -2.365  0.108E-04  0.893E-06  0.178E-05  0.178E-05  0.232E-05  0.117E-05  0.143E-05  0.143E-05
  -2.345  0.113E-04  0.939E-06  0.185E-05  0.185E-05  0.240E-05  0.123E-05  0.149E-05  0.149E-05
  -2.325  0.117E-04  0.986E-06  0.192E-05  0.192E-05  0.249E-05  0.130E-05  0.155E-05  0.155E-05
  -2.305  0.122E-04  0.103E-05  0.199E-05  0.199E-05  0.257E-05  0.137E-05  0.161E-05  0.161E-05
  -2.285  0.126E-04  0.109E-05  0.206E-05  0.206E-05  0.265E-05  0.144E-05  0.167E-05  0.167E-05
  -2.265  0.131E-04  0.114E-05  0.213E-05  0.213E-05  0.273E-05  0.151E-05  0.174E-05  0.174E-05
  -2.245  0.136E-04  0.119E-05  0.220E-05  0.220E-05  0.281E-05  0.158E-05  0.180E-05  0.180E-05
  -2.225  0.141E-04  0.125E-05  0.227E-05  0.227E-05  0.288E-05  0.165E-05  0.186E-05  0.186E-05
  -2.205  0.145E-04  0.131E-05  0.234E-05  0.234E-05  0.296E-05  0.173E-05  0.193E-05  0.193E-05
  -2.185  0.150E-04  0.137E-05  0.241E-05  0.241E-05  0.303E-05  0.181E-05  0.199E-05  0.199E-05
  -2.165  0.155E-04  0.143E-05  0.247E-05  0.247E-05  0.310E-05  0.188E-05  0.206E-05  0.206E-05
  -2.145  0.160E-04  0.150E-05  0.254E-05  0.254E-05  0.317E-05  0.196E-05  0.212E-05  0.212E-05
  -2.125  0.164E-04  0.156E-05  0.261E-05  0.261E-05  0.323E-05  0.204E-05  0.219E-05  0.219E-05
  -2.105  0.169E-04  0.163E-05  0.267E-05  0.267E-05  0.329E-05  0.212E-05  0.226E-05  0.226E-05
  -2.085  0.174E-04  0.170E-05  0.273E-05  0.273E-05  0.335E-05  0.220E-05  0.232E-05  0.232E-05
  -2.065  0.178E-04  0.178E-05  0.280E-05  0.280E-05  0.341E-05  0.228E-05  0.239E-05  0.239E-05
  -2.045  0.183E-04  0.185E-05  0.286E-05  0.286E-05  0.346E-05  0.237E-05  0.246E-05  0.246E-05
  -2.025  0.188E-04  0.193E-05  0.292E-05  0.292E-05  0.351E-05  0.245E-05  0.252E-05  0.252E-05
  -2.005  0.192E-04  0.201E-05  0.298E-05  0.298E-05  0.356E-05  0.253E-05  0.259E-05  0.259E-05
  -1.985  0.197E-04  0.209E-05  0.303E-05  0.303E-05  0.360E-05  0.261E-05  0.266E-05  0.266E-05
  -1.965  0.201E-04  0.218E-05  0.309E-05  0.309E-05  0.364E-05  0.270E-05  0.273E-05  0.273E-05
  -1.945  0.206E-04  0.226E-05  0.315E-05  0.315E-05  0.368E-05  0.278E-05  0.279E-05  0.279E-05
  -1.925  0.210E-04  0.235E-05  0.320E-05  0.320E-05  0.371E-05  0.287E-05  0.286E-05  0.286E-05
  -1.905  0.215E-04  0.244E-05  0.325E-05  0.325E-05  0.374E-05  0.295E-05  0.293E-05  0.293E-05
  -1.885  0.219E-04  0.253E-05  0.331E-05  0.331E-05  0.377E-05  0.303E-05  0.300E-05  0.300E-05
  -1.865  0.224E-04  0.262E-05  0.336E-05  0.336E-05  0.379E-05  0.312E-05  0.306E-05  0.306E-05
  -1.845  0.228E-04  0.272E-05  0.340E-05  0.340E-05  0.382E-05  0.320E-05  0.313E-05  0.313E-05
  -1.825  0.232E-04  0.282E-05  0.345E-05  0.345E-05  0.383E-05  0.328E-05  0.320E-05  0.320E-05
  -1.805  0.237E-04  0.291E-05  0.350E-05  0.350E-05  0.385E-05  0.337E-05  0.326E-05  0.326E-05
  -1.785  0.241E-04  0.301E-05  0.354E-05  0.354E-05  0.386E-05  0.345E-05  0.333E-05  0.333E-05
  -1.765  0.245E-04  0.312E-05  0.359E-05  0.359E-05  0.387E-05  0.353E-05  0.340E-05  0.340E-05
  -1.745  0.249E-04  0.322E-05  0.363E-05  0.363E-05  0.388E-05  0.361E-05  0.347E-05  0.347E-05
  -1.725  0.253E-04  0.332E-05  0.367E-05  0.367E-05  0.388E-05  0.369E-05  0.353E-05  0.353E-05
  -1.705  0.257E-04  0.343E-05  0.371E-05  0.371E-05  0.389E-05  0.377E-05  0.360E-05  0.360E-05
  -1.685  0.261E-04  0.353E-05  0.375E-05  0.375E-05  0.389E-05  0.385E-05  0.366E-05  0.366E-05
  -1.665  0.265E-04  0.364E-05  0.379E-05  0.379E-05  0.389E-05  0.393E-05  0.373E-05  0.373E-05
  -1.645  0.269E-04  0.375E-05  0.383E-05  0.383E-05  0.388E-05  0.401E-05  0.380E-05  0.380E-05
  -1.625  0.273E-04  0.385E-05  0.387E-05  0.387E-05  0.388E-05  0.409E-05  0.386E-05  0.386E-05
  -1.605  0.277E-04  0.396E-05  0.390E-05  0.390E-05  0.387E-05  0.416E-05  0.393E-05  0.393E-05
  -1.585  0.280E-04  0.407E-05  0.394E-05  0.394E-05  0.386E-05  0.424E-05  0.399E-05  0.399E-05
  -1.565  0.284E-04  0.418E-05  0.397E-05  0.397E-05  0.385E-05  0.432E-05  0.406E-05  0.406E-05
  -1.545  0.288E-04  0.429E-05  0.401E-05  0.401E-05  0.384E-05  0.439E-05  0.412E-05  0.412E-05
  -1.525  0.291E-04  0.440E-05  0.404E-05  0.404E-05  0.383E-05  0.447E-05  0.418E-05  0.418E-05
  -1.505  0.295E-04  0.451E-05  0.408E-05  0.408E-05  0.382E-05  0.454E-05  0.425E-05  0.425E-05
  -1.485  0.299E-04  0.462E-05  0.411E-05  0.411E-05  0.380E-05  0.462E-05  0.431E-05  0.431E-05
  -1.465  0.302E-04  0.473E-05  0.414E-05  0.414E-05  0.379E-05  0.469E-05  0.437E-05  0.437E-05
  -1.445  0.306E-04  0.483E-05  0.417E-05  0.417E-05  0.378E-05  0.477E-05  0.444E-05  0.444E-05
  -1.425  0.310E-04  0.494E-05  0.420E-05  0.420E-05  0.376E-05  0.484E-05  0.450E-05  0.450E-05
  -1.405  0.313E-04  0.505E-05  0.424E-05  0.424E-05  0.375E-05  0.492E-05  0.456E-05  0.456E-05
  -1.385  0.317E-04  0.516E-05  0.427E-05  0.427E-05  0.374E-05  0.499E-05  0.462E-05  0.462E-05
  -1.365  0.320E-04  0.526E-05  0.430E-05  0.430E-05  0.372E-05  0.506E-05  0.468E-05  0.468E-05
  -1.345  0.324E-04  0.537E-05  0.433E-05  0.433E-05  0.371E-05  0.513E-05  0.475E-05  0.475E-05
  -1.325  0.327E-04  0.547E-05  0.437E-05  0.437E-05  0.370E-05  0.521E-05  0.481E-05  0.481E-05
  -1.305  0.331E-04  0.557E-05  0.440E-05  0.440E-05  0.370E-05  0.528E-05  0.487E-05  0.487E-05
  -1.285  0.334E-04  0.567E-05  0.443E-05  0.443E-05  0.369E-05  0.535E-05  0.493E-05  0.493E-05
  -1.265  0.338E-04  0.577E-05  0.447E-05  0.447E-05  0.368E-05  0.542E-05  0.499E-05  0.499E-05
  -1.245  0.341E-04  0.587E-05  0.450E-05  0.450E-05  0.368E-05  0.549E-05  0.505E-05  0.505E-05
  -1.225  0.345E-04  0.596E-05  0.454E-05  0.454E-05  0.368E-05  0.555E-05  0.511E-05  0.511E-05
  -1.205  0.348E-04  0.606E-05  0.457E-05  0.457E-05  0.368E-05  0.562E-05  0.517E-05  0.517E-05
  -1.185  0.352E-04  0.615E-05  0.461E-05  0.461E-05  0.368E-05  0.569E-05  0.523E-05  0.523E-05
  -1.165  0.356E-04  0.624E-05  0.465E-05  0.465E-05  0.369E-05  0.576E-05  0.528E-05  0.528E-05
  -1.145  0.359E-04  0.633E-05  0.469E-05  0.469E-05  0.370E-05  0.583E-05  0.534E-05  0.534E-05
  -1.125  0.363E-04  0.641E-05  0.473E-05  0.473E-05  0.371E-05  0.590E-05  0.540E-05  0.540E-05
  -1.105  0.367E-04  0.650E-05  0.477E-05  0.477E-05  0.373E-05  0.597E-05  0.546E-05  0.546E-05
  -1.085  0.370E-04  0.658E-05  0.481E-05  0.481E-05  0.375E-05  0.604E-05  0.552E-05  0.552E-05
  -1.065  0.374E-04  0.666E-05  0.486E-05  0.486E-05  0.378E-05  0.611E-05  0.558E-05  0.558E-05
  -1.045  0.378E-04  0.673E-05  0.490E-05  0.490E-05  0.380E-05  0.618E-05  0.563E-05  0.563E-05
  -1.025  0.382E-04  0.681E-05  0.495E-05  0.495E-05  0.384E-05  0.626E-05  0.569E-05  0.569E-05
  -1.005  0.386E-04  0.688E-05  0.500E-05  0.500E-05  0.387E-05  0.634E-05  0.575E-05  0.575E-05
  -0.985  0.390E-04  0.694E-05  0.505E-05  0.505E-05  0.392E-05  0.642E-05  0.581E-05  0.581E-05
  -0.965  0.394E-04  0.701E-05  0.511E-05  0.511E-05  0.396E-05  0.650E-05  0.587E-05  0.587E-05
  -0.945  0.398E-04  0.707E-05  0.516E-05  0.516E-05  0.402E-05  0.658E-05  0.593E-05  0.593E-05
  -0.925  0.403E-04  0.713E-05  0.522E-05  0.522E-05  0.407E-05  0.667E-05  0.599E-05  0.599E-05
  -0.905  0.407E-04  0.719E-05  0.528E-05  0.528E-05  0.414E-05  0.675E-05  0.605E-05  0.605E-05
  -0.885  0.412E-04  0.725E-05  0.535E-05  0.535E-05  0.421E-05  0.684E-05  0.611E-05  0.611E-05
  -0.865  0.417E-04  0.730E-05  0.542E-05  0.542E-05  0.428E-05  0.693E-05  0.617E-05  0.617E-05
  -0.845  0.422E-04  0.735E-05  0.549E-05  0.549E-05  0.437E-05  0.702E-05  0.623E-05  0.623E-05
  -0.825  0.427E-04  0.740E-05  0.556E-05  0.556E-05  0.446E-05  0.712E-05  0.630E-05  0.630E-05
  -0.805  0.432E-04  0.745E-05  0.564E-05  0.564E-05  0.456E-05  0.721E-05  0.636E-05  0.636E-05
  -0.785  0.438E-04  0.749E-05  0.572E-05  0.572E-05  0.466E-05  0.730E-05  0.643E-05  0.643E-05
  -0.765  0.443E-04  0.753E-05  0.581E-05  0.581E-05  0.478E-05  0.739E-05  0.650E-05  0.650E-05
  -0.745  0.449E-04  0.757E-05  0.590E-05  0.590E-05  0.490E-05  0.749E-05  0.657E-05  0.657E-05
  -0.725  0.455E-04  0.761E-05  0.600E-05  0.600E-05  0.504E-05  0.758E-05  0.665E-05  0.665E-05
  -0.705  0.461E-04  0.765E-05  0.610E-05  0.610E-05  0.518E-05  0.767E-05  0.672E-05  0.672E-05
  -0.685  0.468E-04  0.768E-05  0.621E-05  0.621E-05  0.533E-05  0.776E-05  0.680E-05  0.680E-05
  -0.665  0.475E-04  0.771E-05  0.633E-05  0.633E-05  0.550E-05  0.785E-05  0.688E-05  0.688E-05
  -0.645  0.482E-04  0.774E-05  0.645E-05  0.645E-05  0.567E-05  0.794E-05  0.697E-05  0.697E-05
  -0.625  0.489E-04  0.777E-05  0.657E-05  0.657E-05  0.586E-05  0.803E-05  0.705E-05  0.705E-05
  -0.605  0.497E-04  0.780E-05  0.671E-05  0.671E-05  0.606E-05  0.812E-05  0.714E-05  0.714E-05
  -0.585  0.505E-04  0.782E-05  0.685E-05  0.685E-05  0.627E-05  0.821E-05  0.724E-05  0.724E-05
  -0.565  0.513E-04  0.785E-05  0.700E-05  0.700E-05  0.649E-05  0.830E-05  0.734E-05  0.734E-05
  -0.545  0.522E-04  0.787E-05  0.716E-05  0.716E-05  0.673E-05  0.840E-05  0.744E-05  0.744E-05
  -0.525  0.531E-04  0.789E-05  0.733E-05  0.733E-05  0.699E-05  0.850E-05  0.755E-05  0.755E-05
  -0.505  0.541E-04  0.791E-05  0.750E-05  0.750E-05  0.726E-05  0.860E-05  0.767E-05  0.767E-05
  -0.485  0.551E-04  0.793E-05  0.769E-05  0.769E-05  0.755E-05  0.871E-05  0.779E-05  0.779E-05
  -0.465  0.562E-04  0.795E-05  0.789E-05  0.789E-05  0.786E-05  0.882E-05  0.791E-05  0.791E-05
  -0.445  0.574E-04  0.797E-05  0.810E-05  0.810E-05  0.819E-05  0.893E-05  0.805E-05  0.805E-05
  -0.425  0.586E-04  0.798E-05  0.833E-05  0.833E-05  0.853E-05  0.906E-05  0.819E-05  0.819E-05
  -0.405  0.599E-04  0.800E-05  0.857E-05  0.857E-05  0.890E-05  0.918E-05  0.834E-05  0.834E-05
  -0.385  0.613E-04  0.802E-05  0.882E-05  0.882E-05  0.930E-05  0.932E-05  0.850E-05  0.850E-05
  -0.365  0.627E-04  0.804E-05  0.909E-05  0.909E-05  0.971E-05  0.945E-05  0.867E-05  0.867E-05
  -0.345  0.642E-04  0.806E-05  0.937E-05  0.937E-05  0.102E-04  0.960E-05  0.884E-05  0.884E-05
  -0.325  0.659E-04  0.808E-05  0.967E-05  0.967E-05  0.106E-04  0.975E-05  0.903E-05  0.903E-05
  -0.305  0.676E-04  0.810E-05  0.100E-04  0.100E-04  0.111E-04  0.990E-05  0.924E-05  0.924E-05
  -0.285  0.694E-04  0.812E-05  0.103E-04  0.103E-04  0.117E-04  0.101E-04  0.945E-05  0.945E-05
  -0.265  0.714E-04  0.814E-05  0.107E-04  0.107E-04  0.122E-04  0.102E-04  0.968E-05  0.968E-05
  -0.245  0.734E-04  0.817E-05  0.111E-04  0.111E-04  0.128E-04  0.104E-04  0.992E-05  0.992E-05
  -0.225  0.756E-04  0.820E-05  0.115E-04  0.115E-04  0.135E-04  0.105E-04  0.102E-04  0.102E-04
  -0.205  0.779E-04  0.823E-05  0.119E-04  0.119E-04  0.142E-04  0.107E-04  0.105E-04  0.105E-04
  -0.185  0.803E-04  0.826E-05  0.124E-04  0.124E-04  0.149E-04  0.108E-04  0.108E-04  0.108E-04
