# E (eV)  dos(E)    pdos(E)
  -3.448  0.900E-06  0.893E-06
  -3.428  0.217E-05  0.215E-05
  -3.408  0.502E-05  0.498E-05
  -3.388  0.112E-04  0.111E-04
  -3.368  0.238E-04  0.237E-04
  -3.348  0.489E-04  0.486E-04
  -3.328  0.966E-04  0.959E-04
  -3.308  0.184E-03  0.182E-03
  -3.288  0.336E-03  0.333E-03
  -3.268  0.591E-03  0.586E-03
  -3.248  0.100E-02  0.995E-03
  -3.228  0.164E-02  0.163E-02
  -3.208  0.259E-02  0.257E-02
  -3.188  0.396E-02  0.393E-02
  -3.168  0.584E-02  0.579E-02
  -3.148  0.833E-02  0.827E-02
  -3.128  0.115E-01  0.114E-01
  -3.108  0.154E-01  0.153E-01
  -3.088  0.201E-01  0.199E-01
  -3.068  0.254E-01  0.252E-01
  -3.048  0.313E-01  0.311E-01
  -3.028  0.377E-01  0.374E-01
  -3.008  0.443E-01  0.440E-01
  -2.988  0.511E-01  0.507E-01
  -2.968  0.579E-01  0.575E-01
  -2.948  0.647E-01  0.642E-01
  -2.928  0.712E-01  0.707E-01
  -2.908  0.775E-01  0.769E-01
  -2.888  0.834E-01  0.828E-01
  -2.868  0.889E-01  0.882E-01
  -2.848  0.939E-01  0.932E-01
  -2.828  0.984E-01  0.977E-01
  -2.808  0.103E+00  0.102E+00
  -2.788  0.106E+00  0.106E+00
  -2.768  0.110E+00  0.109E+00
  -2.748  0.114E+00  0.113E+00
  -2.728  0.118E+00  0.117E+00
  -2.708  0.123E+00  0.122E+00
  -2.688  0.127E+00  0.126E+00
  -2.668  0.132E+00  0.131E+00
  -2.648  0.136E+00  0.135E+00
  -2.628  0.139E+00  0.138E+00
  -2.608  0.142E+00  0.141E+00
  -2.588  0.144E+00  0.143E+00
  -2.568  0.145E+00  0.144E+00
  -2.548  0.146E+00  0.145E+00
  -2.528  0.147E+00  0.146E+00
  -2.508  0.149E+00  0.148E+00
  -2.488  0.152E+00  0.151E+00
  -2.468  0.156E+00  0.155E+00
  -2.448  0.161E+00  0.160E+00
  -2.428  0.166E+00  0.165E+00
  -2.408  0.171E+00  0.170E+00
  -2.388  0.176E+00  0.175E+00
  -2.368  0.180E+00  0.178E+00
  -2.348  0.182E+00  0.181E+00
  -2.328  0.184E+00  0.182E+00
  -2.308  0.184E+00  0.183E+00
  -2.288  0.184E+00  0.182E+00
  -2.268  0.183E+00  0.182E+00
  -2.248  0.182E+00  0.181E+00
  -2.228  0.182E+00  0.181E+00
  -2.208  0.183E+00  0.182E+00
  -2.188  0.185E+00  0.183E+00
  -2.168  0.188E+00  0.187E+00
  -2.148  0.192E+00  0.191E+00
  -2.128  0.198E+00  0.197E+00
  -2.108  0.204E+00  0.203E+00
  -2.088  0.210E+00  0.209E+00
  -2.068  0.216E+00  0.214E+00
  -2.048  0.220E+00  0.218E+00
  -2.028  0.222E+00  0.221E+00
  -2.008  0.223E+00  0.222E+00
  -1.988  0.223E+00  0.221E+00
  -1.968  0.221E+00  0.220E+00
  -1.948  0.220E+00  0.218E+00
  -1.928  0.219E+00  0.217E+00
  -1.908  0.218E+00  0.217E+00
  -1.888  0.219E+00  0.217E+00
  -1.868  0.220E+00  0.219E+00
  -1.848  0.222E+00  0.220E+00
  -1.828  0.224E+00  0.222E+00
  -1.808  0.226E+00  0.224E+00
  -1.788  0.228E+00  0.226E+00
  -1.768  0.230E+00  0.228E+00
  -1.748  0.233E+00  0.231E+00
  -1.728  0.236E+00  0.234E+00
  -1.708  0.241E+00  0.238E+00
  -1.688  0.245E+00  0.243E+00
  -1.668  0.250E+00  0.248E+00
  -1.648  0.255E+00  0.252E+00
  -1.628  0.259E+00  0.256E+00
  -1.608  0.262E+00  0.259E+00
  -1.588  0.264E+00  0.261E+00
  -1.568  0.264E+00  0.262E+00
  -1.548  0.265E+00  0.262E+00
  -1.528  0.265E+00  0.262E+00
  -1.508  0.264E+00  0.261E+00
  -1.488  0.264E+00  0.261E+00
  -1.468  0.263E+00  0.260E+00
  -1.448  0.263E+00  0.260E+00
  -1.428  0.262E+00  0.259E+00
  -1.408  0.261E+00  0.258E+00
  -1.388  0.260E+00  0.257E+00
  -1.368  0.260E+00  0.256E+00
  -1.348  0.260E+00  0.257E+00
  -1.328  0.261E+00  0.258E+00
  -1.308  0.264E+00  0.260E+00
  -1.288  0.267E+00  0.264E+00
  -1.268  0.272E+00  0.268E+00
  -1.248  0.277E+00  0.273E+00
  -1.228  0.283E+00  0.279E+00
  -1.208  0.288E+00  0.284E+00
  -1.188  0.294E+00  0.289E+00
  -1.168  0.299E+00  0.294E+00
  -1.148  0.303E+00  0.298E+00
  -1.128  0.306E+00  0.301E+00
  -1.108  0.308E+00  0.304E+00
  -1.088  0.310E+00  0.305E+00
  -1.068  0.310E+00  0.306E+00
  -1.048  0.311E+00  0.306E+00
  -1.028  0.311E+00  0.306E+00
  -1.008  0.311E+00  0.306E+00
  -0.988  0.311E+00  0.307E+00
  -0.968  0.312E+00  0.307E+00
  -0.948  0.311E+00  0.306E+00
  -0.928  0.310E+00  0.305E+00
  -0.908  0.307E+00  0.302E+00
  -0.888  0.303E+00  0.298E+00
  -0.868  0.297E+00  0.292E+00
  -0.848  0.291E+00  0.286E+00
  -0.828  0.285E+00  0.281E+00
  -0.808  0.282E+00  0.277E+00
  -0.788  0.281E+00  0.276E+00
  -0.768  0.285E+00  0.280E+00
  -0.748  0.292E+00  0.287E+00
  -0.728  0.303E+00  0.298E+00
  -0.708  0.317E+00  0.311E+00
  -0.688  0.331E+00  0.325E+00
  -0.668  0.345E+00  0.339E+00
  -0.648  0.357E+00  0.350E+00
  -0.628  0.366E+00  0.359E+00
  -0.608  0.372E+00  0.365E+00
  -0.588  0.375E+00  0.368E+00
  -0.568  0.376E+00  0.369E+00
  -0.548  0.374E+00  0.367E+00
  -0.528  0.370E+00  0.363E+00
  -0.508  0.365E+00  0.358E+00
  -0.488  0.359E+00  0.352E+00
  -0.468  0.353E+00  0.346E+00
  -0.448  0.347E+00  0.340E+00
  -0.428  0.342E+00  0.335E+00
  -0.408  0.338E+00  0.331E+00
  -0.388  0.337E+00  0.330E+00
  -0.368  0.337E+00  0.330E+00
  -0.348  0.338E+00  0.331E+00
  -0.328  0.339E+00  0.332E+00
  -0.308  0.340E+00  0.332E+00
  -0.288  0.339E+00  0.331E+00
  -0.268  0.336E+00  0.328E+00
  -0.248  0.332E+00  0.324E+00
  -0.228  0.328E+00  0.320E+00
  -0.208  0.325E+00  0.317E+00
  -0.188  0.325E+00  0.317E+00
  -0.168  0.329E+00  0.321E+00
  -0.148  0.338E+00  0.330E+00
  -0.128  0.352E+00  0.343E+00
  -0.108  0.370E+00  0.360E+00
  -0.088  0.390E+00  0.379E+00
  -0.068  0.410E+00  0.399E+00
  -0.048  0.429E+00  0.417E+00
  -0.028  0.444E+00  0.431E+00
  -0.008  0.454E+00  0.441E+00
   0.012  0.458E+00  0.445E+00
   0.032  0.458E+00  0.445E+00
   0.052  0.453E+00  0.440E+00
   0.072  0.445E+00  0.432E+00
   0.092  0.435E+00  0.422E+00
   0.112  0.423E+00  0.410E+00
   0.132  0.411E+00  0.398E+00
   0.152  0.400E+00  0.387E+00
   0.172  0.390E+00  0.377E+00
   0.192  0.381E+00  0.368E+00
   0.212  0.375E+00  0.361E+00
   0.232  0.372E+00  0.358E+00
   0.252  0.372E+00  0.357E+00
   0.272  0.374E+00  0.358E+00
   0.292  0.378E+00  0.361E+00
   0.312  0.383E+00  0.365E+00
   0.332  0.388E+00  0.369E+00
   0.352  0.392E+00  0.373E+00
   0.372  0.395E+00  0.375E+00
   0.392  0.397E+00  0.376E+00
   0.412  0.399E+00  0.378E+00
   0.432  0.402E+00  0.380E+00
   0.452  0.408E+00  0.384E+00
   0.472  0.417E+00  0.392E+00
   0.492  0.430E+00  0.403E+00
   0.512  0.446E+00  0.418E+00
   0.532  0.466E+00  0.436E+00
   0.552  0.488E+00  0.455E+00
   0.572  0.509E+00  0.475E+00
   0.592  0.529E+00  0.493E+00
   0.612  0.547E+00  0.508E+00
   0.632  0.561E+00  0.521E+00
   0.652  0.572E+00  0.529E+00
   0.672  0.580E+00  0.535E+00
   0.692  0.586E+00  0.538E+00
   0.712  0.589E+00  0.538E+00
   0.732  0.590E+00  0.537E+00
   0.752  0.589E+00  0.533E+00
   0.772  0.584E+00  0.527E+00
   0.792  0.577E+00  0.517E+00
   0.812  0.565E+00  0.505E+00
   0.832  0.550E+00  0.489E+00
   0.852  0.533E+00  0.473E+00
   0.872  0.515E+00  0.456E+00
   0.892  0.499E+00  0.441E+00
   0.912  0.485E+00  0.430E+00
   0.932  0.476E+00  0.423E+00
   0.952  0.472E+00  0.421E+00
   0.972  0.472E+00  0.423E+00
   0.992  0.474E+00  0.427E+00
   1.012  0.478E+00  0.433E+00
   1.032  0.481E+00  0.437E+00
   1.052  0.483E+00  0.440E+00
   1.072  0.485E+00  0.442E+00
   1.092  0.486E+00  0.445E+00
   1.112  0.489E+00  0.448E+00
   1.132  0.495E+00  0.454E+00
   1.152  0.505E+00  0.464E+00
   1.172  0.521E+00  0.479E+00
   1.192  0.540E+00  0.497E+00
   1.212  0.561E+00  0.517E+00
   1.232  0.582E+00  0.537E+00
   1.252  0.601E+00  0.555E+00
   1.272  0.614E+00  0.568E+00
   1.292  0.620E+00  0.573E+00
   1.312  0.618E+00  0.571E+00
   1.332  0.607E+00  0.562E+00
   1.352  0.590E+00  0.545E+00
   1.372  0.567E+00  0.524E+00
   1.392  0.541E+00  0.500E+00
   1.412  0.513E+00  0.474E+00
   1.432  0.487E+00  0.448E+00
   1.452  0.461E+00  0.424E+00
   1.472  0.438E+00  0.402E+00
   1.492  0.417E+00  0.382E+00
   1.512  0.397E+00  0.364E+00
   1.532  0.380E+00  0.347E+00
   1.552  0.364E+00  0.332E+00
   1.572  0.351E+00  0.319E+00
   1.592  0.339E+00  0.308E+00
   1.612  0.329E+00  0.299E+00
   1.632  0.321E+00  0.291E+00
   1.652  0.315E+00  0.285E+00
   1.672  0.310E+00  0.280E+00
   1.692  0.306E+00  0.277E+00
   1.712  0.304E+00  0.275E+00
   1.732  0.305E+00  0.275E+00
   1.752  0.308E+00  0.278E+00
   1.772  0.315E+00  0.283E+00
   1.792  0.326E+00  0.293E+00
   1.812  0.342E+00  0.306E+00
   1.832  0.362E+00  0.323E+00
   1.852  0.385E+00  0.343E+00
   1.872  0.410E+00  0.364E+00
   1.892  0.435E+00  0.385E+00
   1.912  0.457E+00  0.405E+00
   1.932  0.475E+00  0.420E+00
   1.952  0.488E+00  0.430E+00
   1.972  0.493E+00  0.434E+00
   1.992  0.491E+00  0.430E+00
   2.012  0.481E+00  0.421E+00
   2.032  0.465E+00  0.405E+00
   2.052  0.443E+00  0.385E+00
   2.072  0.418E+00  0.362E+00
   2.092  0.390E+00  0.336E+00
   2.112  0.361E+00  0.310E+00
   2.132  0.332E+00  0.284E+00
   2.152  0.303E+00  0.258E+00
   2.172  0.275E+00  0.233E+00
   2.192  0.248E+00  0.209E+00
   2.212  0.222E+00  0.187E+00
   2.232  0.198E+00  0.166E+00
   2.252  0.177E+00  0.147E+00
   2.272  0.160E+00  0.132E+00
   2.292  0.147E+00  0.119E+00
   2.312  0.139E+00  0.111E+00
   2.332  0.136E+00  0.107E+00
   2.352  0.137E+00  0.106E+00
   2.372  0.143E+00  0.109E+00
   2.392  0.151E+00  0.114E+00
   2.412  0.161E+00  0.121E+00
   2.432  0.172E+00  0.129E+00
   2.452  0.184E+00  0.138E+00
   2.472  0.198E+00  0.148E+00
   2.492  0.212E+00  0.159E+00
   2.512  0.229E+00  0.172E+00
   2.532  0.247E+00  0.186E+00
   2.552  0.268E+00  0.201E+00
   2.572  0.289E+00  0.217E+00
   2.592  0.310E+00  0.231E+00
   2.612  0.327E+00  0.244E+00
   2.632  0.340E+00  0.252E+00
   2.652  0.345E+00  0.255E+00
   2.672  0.342E+00  0.252E+00
   2.692  0.330E+00  0.242E+00
   2.712  0.311E+00  0.226E+00
   2.732  0.284E+00  0.206E+00
   2.752  0.253E+00  0.183E+00
   2.772  0.221E+00  0.158E+00
   2.792  0.188E+00  0.133E+00
   2.812  0.158E+00  0.111E+00
   2.832  0.132E+00  0.904E-01
   2.852  0.110E+00  0.736E-01
   2.872  0.934E-01  0.601E-01
   2.892  0.811E-01  0.499E-01
   2.912  0.727E-01  0.424E-01
   2.932  0.672E-01  0.372E-01
   2.952  0.639E-01  0.336E-01
   2.972  0.618E-01  0.311E-01
   2.992  0.604E-01  0.294E-01
   3.012  0.594E-01  0.280E-01
   3.032  0.585E-01  0.269E-01
   3.052  0.578E-01  0.260E-01
   3.072  0.573E-01  0.253E-01
   3.092  0.571E-01  0.250E-01
   3.112  0.577E-01  0.252E-01
   3.132  0.595E-01  0.262E-01
   3.152  0.630E-01  0.284E-01
   3.172  0.690E-01  0.321E-01
   3.192  0.782E-01  0.377E-01
   3.212  0.913E-01  0.455E-01
   3.232  0.109E+00  0.557E-01
   3.252  0.130E+00  0.682E-01
   3.272  0.155E+00  0.824E-01
   3.292  0.182E+00  0.975E-01
   3.312  0.209E+00  0.112E+00
   3.332  0.233E+00  0.125E+00
   3.352  0.253E+00  0.135E+00
   3.372  0.264E+00  0.141E+00
   3.392  0.268E+00  0.143E+00
   3.412  0.262E+00  0.139E+00
   3.432  0.249E+00  0.132E+00
   3.452  0.230E+00  0.121E+00
   3.472  0.208E+00  0.110E+00
   3.492  0.186E+00  0.980E-01
   3.512  0.166E+00  0.877E-01
   3.532  0.150E+00  0.797E-01
   3.552  0.138E+00  0.743E-01
   3.572  0.131E+00  0.714E-01
   3.592  0.128E+00  0.707E-01
   3.612  0.128E+00  0.717E-01
   3.632  0.130E+00  0.739E-01
   3.652  0.133E+00  0.773E-01
   3.672  0.138E+00  0.822E-01
   3.692  0.146E+00  0.894E-01
   3.712  0.158E+00  0.998E-01
   3.732  0.176E+00  0.115E+00
   3.752  0.202E+00  0.136E+00
   3.772  0.237E+00  0.163E+00
   3.792  0.282E+00  0.198E+00
   3.812  0.336E+00  0.240E+00
   3.832  0.398E+00  0.288E+00
   3.852  0.466E+00  0.341E+00
   3.872  0.536E+00  0.398E+00
   3.892  0.606E+00  0.454E+00
   3.912  0.672E+00  0.508E+00
   3.932  0.731E+00  0.558E+00
   3.952  0.781E+00  0.600E+00
   3.972  0.819E+00  0.633E+00
   3.992  0.845E+00  0.656E+00
   4.012  0.857E+00  0.667E+00
   4.032  0.857E+00  0.667E+00
   4.052  0.844E+00  0.655E+00
   4.072  0.820E+00  0.635E+00
   4.092  0.788E+00  0.606E+00
   4.112  0.749E+00  0.573E+00
   4.132  0.707E+00  0.538E+00
   4.152  0.667E+00  0.504E+00
   4.172  0.630E+00  0.475E+00
   4.192  0.602E+00  0.452E+00
   4.212  0.583E+00  0.438E+00
   4.232  0.575E+00  0.433E+00
   4.252  0.578E+00  0.436E+00
   4.272  0.589E+00  0.445E+00
   4.292  0.605E+00  0.458E+00
   4.312  0.622E+00  0.471E+00
   4.332  0.637E+00  0.482E+00
   4.352  0.646E+00  0.488E+00
   4.372  0.647E+00  0.487E+00
   4.392  0.638E+00  0.480E+00
   4.412  0.621E+00  0.465E+00
   4.432  0.597E+00  0.446E+00
   4.452  0.568E+00  0.423E+00
   4.472  0.537E+00  0.398E+00
   4.492  0.508E+00  0.374E+00
   4.512  0.481E+00  0.352E+00
   4.532  0.460E+00  0.335E+00
   4.552  0.445E+00  0.323E+00
   4.572  0.440E+00  0.318E+00
   4.592  0.444E+00  0.320E+00
   4.612  0.458E+00  0.329E+00
   4.632  0.480E+00  0.345E+00
   4.652  0.510E+00  0.367E+00
   4.672  0.544E+00  0.393E+00
   4.692  0.580E+00  0.419E+00
   4.712  0.613E+00  0.444E+00
   4.732  0.639E+00  0.464E+00
   4.752  0.657E+00  0.478E+00
   4.772  0.663E+00  0.483E+00
   4.792  0.658E+00  0.479E+00
   4.812  0.642E+00  0.468E+00
   4.832  0.618E+00  0.451E+00
   4.852  0.588E+00  0.429E+00
   4.872  0.554E+00  0.405E+00
   4.892  0.519E+00  0.379E+00
   4.912  0.485E+00  0.354E+00
   4.932  0.452E+00  0.331E+00
   4.952  0.420E+00  0.308E+00
   4.972  0.392E+00  0.287E+00
   4.992  0.365E+00  0.269E+00
   5.012  0.342E+00  0.252E+00
   5.032  0.322E+00  0.238E+00
   5.052  0.307E+00  0.228E+00
   5.072  0.298E+00  0.221E+00
   5.092  0.295E+00  0.219E+00
   5.112  0.300E+00  0.223E+00
   5.132  0.311E+00  0.232E+00
   5.152  0.331E+00  0.247E+00
   5.172  0.357E+00  0.266E+00
   5.192  0.388E+00  0.290E+00
   5.212  0.423E+00  0.316E+00
   5.232  0.461E+00  0.344E+00
   5.252  0.498E+00  0.372E+00
   5.272  0.532E+00  0.398E+00
   5.292  0.561E+00  0.420E+00
   5.312  0.583E+00  0.436E+00
   5.332  0.596E+00  0.446E+00
   5.352  0.599E+00  0.448E+00
   5.372  0.592E+00  0.443E+00
   5.392  0.576E+00  0.431E+00
   5.412  0.552E+00  0.414E+00
   5.432  0.524E+00  0.392E+00
   5.452  0.492E+00  0.369E+00
   5.472  0.461E+00  0.346E+00
   5.492  0.432E+00  0.325E+00
   5.512  0.407E+00  0.306E+00
   5.532  0.385E+00  0.291E+00
   5.552  0.368E+00  0.278E+00
   5.572  0.354E+00  0.268E+00
   5.592  0.342E+00  0.259E+00
   5.612  0.331E+00  0.252E+00
   5.632  0.321E+00  0.244E+00
   5.652  0.312E+00  0.237E+00
   5.672  0.303E+00  0.230E+00
   5.692  0.296E+00  0.224E+00
   5.712  0.291E+00  0.220E+00
   5.732  0.290E+00  0.220E+00
   5.752  0.295E+00  0.223E+00
   5.772  0.306E+00  0.231E+00
   5.792  0.323E+00  0.244E+00
   5.812  0.347E+00  0.262E+00
   5.832  0.375E+00  0.283E+00
   5.852  0.406E+00  0.305E+00
   5.872  0.436E+00  0.328E+00
   5.892  0.463E+00  0.347E+00
   5.912  0.483E+00  0.362E+00
   5.932  0.495E+00  0.370E+00
   5.952  0.497E+00  0.371E+00
   5.972  0.488E+00  0.364E+00
   5.992  0.471E+00  0.351E+00
   6.012  0.446E+00  0.332E+00
   6.032  0.418E+00  0.309E+00
   6.052  0.388E+00  0.287E+00
   6.072  0.361E+00  0.265E+00
   6.092  0.338E+00  0.248E+00
   6.112  0.323E+00  0.235E+00
   6.132  0.314E+00  0.228E+00
   6.152  0.313E+00  0.226E+00
   6.172  0.318E+00  0.229E+00
   6.192  0.326E+00  0.234E+00
   6.212  0.337E+00  0.242E+00
   6.232  0.349E+00  0.250E+00
   6.252  0.361E+00  0.258E+00
   6.272  0.372E+00  0.266E+00
   6.292  0.384E+00  0.275E+00
   6.312  0.397E+00  0.285E+00
   6.332  0.412E+00  0.296E+00
   6.352  0.430E+00  0.309E+00
   6.372  0.451E+00  0.325E+00
   6.392  0.475E+00  0.343E+00
   6.412  0.501E+00  0.362E+00
   6.432  0.527E+00  0.382E+00
   6.452  0.554E+00  0.401E+00
   6.472  0.578E+00  0.418E+00
   6.492  0.598E+00  0.433E+00
   6.512  0.613E+00  0.445E+00
   6.532  0.623E+00  0.452E+00
   6.552  0.627E+00  0.456E+00
   6.572  0.625E+00  0.455E+00
   6.592  0.617E+00  0.450E+00
   6.612  0.605E+00  0.443E+00
   6.632  0.589E+00  0.432E+00
   6.652  0.570E+00  0.419E+00
   6.672  0.548E+00  0.404E+00
   6.692  0.524E+00  0.388E+00
   6.712  0.499E+00  0.371E+00
   6.732  0.475E+00  0.355E+00
   6.752  0.454E+00  0.340E+00
   6.772  0.438E+00  0.330E+00
   6.792  0.428E+00  0.324E+00
   6.812  0.427E+00  0.323E+00
   6.832  0.434E+00  0.329E+00
   6.852  0.449E+00  0.341E+00
   6.872  0.471E+00  0.358E+00
   6.892  0.497E+00  0.378E+00
   6.912  0.527E+00  0.400E+00
   6.932  0.557E+00  0.422E+00
   6.952  0.586E+00  0.442E+00
   6.972  0.613E+00  0.461E+00
   6.992  0.639E+00  0.478E+00
   7.012  0.664E+00  0.493E+00
   7.032  0.688E+00  0.507E+00
   7.052  0.711E+00  0.520E+00
   7.072  0.735E+00  0.533E+00
   7.092  0.759E+00  0.545E+00
   7.112  0.782E+00  0.557E+00
   7.132  0.803E+00  0.567E+00
   7.152  0.819E+00  0.575E+00
   7.172  0.830E+00  0.579E+00
   7.192  0.833E+00  0.578E+00
   7.212  0.826E+00  0.571E+00
   7.232  0.810E+00  0.557E+00
   7.252  0.785E+00  0.537E+00
   7.272  0.752E+00  0.513E+00
   7.292  0.713E+00  0.485E+00
   7.312  0.672E+00  0.456E+00
   7.332  0.632E+00  0.428E+00
   7.352  0.595E+00  0.404E+00
   7.372  0.565E+00  0.384E+00
   7.392  0.542E+00  0.370E+00
   7.412  0.528E+00  0.361E+00
   7.432  0.521E+00  0.358E+00
   7.452  0.519E+00  0.358E+00
   7.472  0.521E+00  0.360E+00
   7.492  0.524E+00  0.362E+00
   7.512  0.526E+00  0.363E+00
   7.532  0.526E+00  0.361E+00
   7.552  0.524E+00  0.357E+00
   7.572  0.519E+00  0.350E+00
   7.592  0.514E+00  0.343E+00
   7.612  0.509E+00  0.336E+00
   7.632  0.506E+00  0.330E+00
   7.652  0.506E+00  0.327E+00
   7.672  0.510E+00  0.325E+00
   7.692  0.517E+00  0.327E+00
   7.712  0.527E+00  0.331E+00
   7.732  0.540E+00  0.337E+00
   7.752  0.555E+00  0.343E+00
   7.772  0.570E+00  0.351E+00
   7.792  0.587E+00  0.358E+00
   7.812  0.603E+00  0.365E+00
   7.832  0.618E+00  0.371E+00
   7.852  0.631E+00  0.376E+00
   7.872  0.643E+00  0.379E+00
   7.892  0.651E+00  0.381E+00
   7.912  0.656E+00  0.381E+00
   7.932  0.657E+00  0.379E+00
   7.952  0.653E+00  0.375E+00
   7.972  0.646E+00  0.368E+00
   7.992  0.635E+00  0.360E+00
   8.012  0.622E+00  0.350E+00
   8.032  0.609E+00  0.341E+00
   8.052  0.597E+00  0.333E+00
   8.072  0.588E+00  0.327E+00
   8.092  0.582E+00  0.323E+00
   8.112  0.580E+00  0.321E+00
   8.132  0.580E+00  0.322E+00
   8.152  0.581E+00  0.323E+00
   8.172  0.581E+00  0.324E+00
   8.192  0.579E+00  0.324E+00
   8.212  0.573E+00  0.321E+00
   8.232  0.561E+00  0.316E+00
   8.252  0.545E+00  0.307E+00
   8.272  0.525E+00  0.296E+00
   8.292  0.503E+00  0.282E+00
   8.312  0.480E+00  0.268E+00
   8.332  0.459E+00  0.254E+00
   8.352  0.440E+00  0.241E+00
   8.372  0.424E+00  0.230E+00
   8.392  0.412E+00  0.220E+00
   8.412  0.403E+00  0.213E+00
   8.432  0.397E+00  0.207E+00
   8.452  0.394E+00  0.203E+00
   8.472  0.394E+00  0.201E+00
   8.492  0.399E+00  0.202E+00
   8.512  0.409E+00  0.205E+00
   8.532  0.425E+00  0.210E+00
   8.552  0.446E+00  0.219E+00
   8.572  0.473E+00  0.230E+00
   8.592  0.503E+00  0.244E+00
   8.612  0.535E+00  0.258E+00
   8.632  0.565E+00  0.272E+00
   8.652  0.591E+00  0.284E+00
   8.672  0.610E+00  0.294E+00
   8.692  0.621E+00  0.300E+00
   8.712  0.623E+00  0.302E+00
   8.732  0.618E+00  0.301E+00
   8.752  0.607E+00  0.298E+00
   8.772  0.593E+00  0.293E+00
   8.792  0.579E+00  0.288E+00
   8.812  0.567E+00  0.283E+00
   8.832  0.558E+00  0.280E+00
   8.852  0.552E+00  0.278E+00
   8.872  0.548E+00  0.276E+00
   8.892  0.544E+00  0.274E+00
   8.912  0.537E+00  0.272E+00
   8.932  0.528E+00  0.267E+00
   8.952  0.514E+00  0.261E+00
   8.972  0.497E+00  0.254E+00
   8.992  0.479E+00  0.246E+00
   9.012  0.462E+00  0.239E+00
   9.032  0.449E+00  0.235E+00
   9.052  0.441E+00  0.233E+00
   9.072  0.440E+00  0.236E+00
   9.092  0.445E+00  0.242E+00
   9.112  0.456E+00  0.250E+00
   9.132  0.469E+00  0.260E+00
   9.152  0.482E+00  0.270E+00
   9.172  0.492E+00  0.278E+00
   9.192  0.498E+00  0.283E+00
   9.212  0.498E+00  0.285E+00
   9.232  0.495E+00  0.284E+00
   9.252  0.490E+00  0.281E+00
   9.272  0.486E+00  0.279E+00
   9.292  0.487E+00  0.278E+00
   9.312  0.495E+00  0.280E+00
   9.332  0.510E+00  0.286E+00
   9.352  0.533E+00  0.296E+00
   9.372  0.563E+00  0.310E+00
   9.392  0.596E+00  0.326E+00
   9.412  0.629E+00  0.344E+00
