# E (eV)  dos(E)    pdos(E)
  -4.192  0.218E-05  0.217E-05
  -4.172  0.293E-05  0.291E-05
  -4.152  0.392E-05  0.389E-05
  -4.132  0.522E-05  0.518E-05
  -4.112  0.691E-05  0.686E-05
  -4.092  0.911E-05  0.904E-05
  -4.072  0.120E-04  0.119E-04
  -4.052  0.156E-04  0.155E-04
  -4.032  0.203E-04  0.201E-04
  -4.012  0.263E-04  0.261E-04
  -3.992  0.339E-04  0.336E-04
  -3.972  0.434E-04  0.431E-04
  -3.952  0.555E-04  0.550E-04
  -3.932  0.705E-04  0.700E-04
  -3.912  0.892E-04  0.885E-04
  -3.892  0.112E-03  0.112E-03
  -3.872  0.141E-03  0.140E-03
  -3.852  0.176E-03  0.175E-03
  -3.832  0.219E-03  0.217E-03
  -3.812  0.271E-03  0.269E-03
  -3.792  0.334E-03  0.331E-03
  -3.772  0.410E-03  0.406E-03
  -3.752  0.500E-03  0.497E-03
  -3.732  0.609E-03  0.604E-03
  -3.712  0.738E-03  0.732E-03
  -3.692  0.890E-03  0.883E-03
  -3.672  0.107E-02  0.106E-02
  -3.652  0.128E-02  0.127E-02
  -3.632  0.152E-02  0.151E-02
  -3.612  0.181E-02  0.179E-02
  -3.592  0.213E-02  0.212E-02
  -3.572  0.251E-02  0.249E-02
  -3.552  0.294E-02  0.292E-02
  -3.532  0.344E-02  0.341E-02
  -3.512  0.400E-02  0.397E-02
  -3.492  0.463E-02  0.459E-02
  -3.472  0.534E-02  0.530E-02
  -3.452  0.614E-02  0.610E-02
  -3.432  0.703E-02  0.698E-02
  -3.412  0.803E-02  0.797E-02
  -3.392  0.912E-02  0.906E-02
  -3.372  0.103E-01  0.103E-01
  -3.352  0.117E-01  0.116E-01
  -3.332  0.131E-01  0.130E-01
  -3.312  0.147E-01  0.146E-01
  -3.292  0.164E-01  0.163E-01
  -3.272  0.183E-01  0.181E-01
  -3.252  0.203E-01  0.201E-01
  -3.232  0.224E-01  0.223E-01
  -3.212  0.247E-01  0.245E-01
  -3.192  0.272E-01  0.270E-01
  -3.172  0.298E-01  0.295E-01
  -3.152  0.325E-01  0.322E-01
  -3.132  0.354E-01  0.351E-01
  -3.112  0.384E-01  0.381E-01
  -3.092  0.415E-01  0.412E-01
  -3.072  0.448E-01  0.445E-01
  -3.052  0.482E-01  0.478E-01
  -3.032  0.517E-01  0.513E-01
  -3.012  0.553E-01  0.549E-01
  -2.992  0.589E-01  0.585E-01
  -2.972  0.627E-01  0.622E-01
  -2.952  0.665E-01  0.660E-01
  -2.932  0.704E-01  0.698E-01
  -2.912  0.743E-01  0.737E-01
  -2.892  0.782E-01  0.776E-01
  -2.872  0.821E-01  0.815E-01
  -2.852  0.860E-01  0.854E-01
  -2.832  0.899E-01  0.892E-01
  -2.812  0.937E-01  0.931E-01
  -2.792  0.976E-01  0.969E-01
  -2.772  0.101E+00  0.101E+00
  -2.752  0.105E+00  0.104E+00
  -2.732  0.109E+00  0.108E+00
  -2.712  0.112E+00  0.111E+00
  -2.692  0.116E+00  0.115E+00
  -2.672  0.119E+00  0.118E+00
  -2.652  0.123E+00  0.122E+00
  -2.632  0.126E+00  0.125E+00
  -2.612  0.129E+00  0.128E+00
  -2.592  0.133E+00  0.132E+00
  -2.572  0.136E+00  0.135E+00
  -2.552  0.139E+00  0.138E+00
  -2.532  0.142E+00  0.141E+00
  -2.512  0.145E+00  0.144E+00
  -2.492  0.149E+00  0.148E+00
  -2.472  0.152E+00  0.151E+00
  -2.452  0.155E+00  0.154E+00
  -2.432  0.158E+00  0.157E+00
  -2.412  0.162E+00  0.161E+00
  -2.392  0.165E+00  0.164E+00
  -2.372  0.168E+00  0.167E+00
  -2.352  0.172E+00  0.170E+00
  -2.332  0.175E+00  0.174E+00
  -2.312  0.178E+00  0.177E+00
  -2.292  0.181E+00  0.180E+00
  -2.272  0.185E+00  0.183E+00
  -2.252  0.188E+00  0.186E+00
  -2.232  0.191E+00  0.189E+00
  -2.212  0.194E+00  0.192E+00
  -2.192  0.197E+00  0.195E+00
  -2.172  0.199E+00  0.198E+00
  -2.152  0.202E+00  0.200E+00
  -2.132  0.204E+00  0.202E+00
  -2.112  0.206E+00  0.205E+00
  -2.092  0.208E+00  0.206E+00
  -2.072  0.210E+00  0.208E+00
  -2.052  0.211E+00  0.210E+00
  -2.032  0.212E+00  0.211E+00
  -2.012  0.214E+00  0.212E+00
  -1.992  0.215E+00  0.213E+00
  -1.972  0.215E+00  0.214E+00
  -1.952  0.216E+00  0.214E+00
  -1.932  0.217E+00  0.215E+00
  -1.912  0.217E+00  0.215E+00
  -1.892  0.218E+00  0.216E+00
  -1.872  0.218E+00  0.216E+00
  -1.852  0.219E+00  0.217E+00
  -1.832  0.219E+00  0.217E+00
  -1.812  0.220E+00  0.218E+00
  -1.792  0.221E+00  0.219E+00
  -1.772  0.222E+00  0.220E+00
  -1.752  0.224E+00  0.222E+00
  -1.732  0.225E+00  0.223E+00
  -1.712  0.227E+00  0.225E+00
  -1.692  0.230E+00  0.227E+00
  -1.672  0.232E+00  0.230E+00
  -1.652  0.235E+00  0.232E+00
  -1.632  0.238E+00  0.235E+00
  -1.612  0.241E+00  0.239E+00
  -1.592  0.245E+00  0.242E+00
  -1.572  0.249E+00  0.246E+00
  -1.552  0.253E+00  0.250E+00
  -1.532  0.257E+00  0.254E+00
  -1.512  0.261E+00  0.258E+00
  -1.492  0.266E+00  0.263E+00
  -1.472  0.270E+00  0.267E+00
  -1.452  0.274E+00  0.271E+00
  -1.432  0.278E+00  0.275E+00
  -1.412  0.283E+00  0.279E+00
  -1.392  0.286E+00  0.283E+00
  -1.372  0.290E+00  0.286E+00
  -1.352  0.293E+00  0.290E+00
  -1.332  0.296E+00  0.293E+00
  -1.312  0.299E+00  0.295E+00
  -1.292  0.301E+00  0.297E+00
  -1.272  0.303E+00  0.299E+00
  -1.252  0.304E+00  0.300E+00
  -1.232  0.305E+00  0.301E+00
  -1.212  0.306E+00  0.302E+00
  -1.192  0.306E+00  0.302E+00
  -1.172  0.306E+00  0.302E+00
  -1.152  0.305E+00  0.301E+00
  -1.132  0.304E+00  0.300E+00
  -1.112  0.303E+00  0.299E+00
  -1.092  0.301E+00  0.297E+00
  -1.072  0.299E+00  0.295E+00
  -1.052  0.297E+00  0.293E+00
  -1.032  0.295E+00  0.291E+00
  -1.012  0.293E+00  0.289E+00
  -0.992  0.291E+00  0.287E+00
  -0.972  0.289E+00  0.284E+00
  -0.952  0.287E+00  0.282E+00
  -0.932  0.285E+00  0.281E+00
  -0.912  0.284E+00  0.279E+00
  -0.892  0.283E+00  0.278E+00
  -0.872  0.282E+00  0.277E+00
  -0.852  0.281E+00  0.277E+00
  -0.832  0.282E+00  0.277E+00
  -0.812  0.282E+00  0.277E+00
  -0.792  0.283E+00  0.278E+00
  -0.772  0.285E+00  0.280E+00
  -0.752  0.287E+00  0.282E+00
  -0.732  0.290E+00  0.284E+00
  -0.712  0.293E+00  0.288E+00
  -0.692  0.297E+00  0.291E+00
  -0.672  0.301E+00  0.295E+00
  -0.652  0.306E+00  0.300E+00
  -0.632  0.311E+00  0.305E+00
  -0.612  0.317E+00  0.310E+00
  -0.592  0.323E+00  0.316E+00
  -0.572  0.329E+00  0.322E+00
  -0.552  0.335E+00  0.328E+00
  -0.532  0.342E+00  0.334E+00
  -0.512  0.348E+00  0.340E+00
  -0.492  0.354E+00  0.347E+00
  -0.472  0.361E+00  0.353E+00
  -0.452  0.367E+00  0.358E+00
  -0.432  0.372E+00  0.364E+00
  -0.412  0.378E+00  0.369E+00
  -0.392  0.383E+00  0.374E+00
  -0.372  0.388E+00  0.379E+00
  -0.352  0.392E+00  0.383E+00
  -0.332  0.396E+00  0.387E+00
  -0.312  0.400E+00  0.390E+00
  -0.292  0.403E+00  0.393E+00
  -0.272  0.405E+00  0.395E+00
  -0.252  0.407E+00  0.397E+00
  -0.232  0.409E+00  0.398E+00
  -0.212  0.410E+00  0.399E+00
  -0.192  0.411E+00  0.400E+00
  -0.172  0.411E+00  0.400E+00
  -0.152  0.411E+00  0.400E+00
  -0.132  0.411E+00  0.399E+00
  -0.112  0.410E+00  0.398E+00
  -0.092  0.409E+00  0.397E+00
  -0.072  0.408E+00  0.396E+00
  -0.052  0.407E+00  0.394E+00
  -0.032  0.405E+00  0.392E+00
  -0.012  0.404E+00  0.391E+00
   0.008  0.402E+00  0.389E+00
   0.028  0.400E+00  0.386E+00
   0.048  0.398E+00  0.384E+00
   0.068  0.396E+00  0.382E+00
   0.088  0.394E+00  0.380E+00
   0.108  0.393E+00  0.378E+00
   0.128  0.391E+00  0.375E+00
   0.148  0.389E+00  0.373E+00
   0.168  0.387E+00  0.371E+00
   0.188  0.386E+00  0.369E+00
   0.208  0.384E+00  0.367E+00
   0.228  0.383E+00  0.365E+00
   0.248  0.382E+00  0.363E+00
   0.268  0.381E+00  0.362E+00
   0.288  0.380E+00  0.361E+00
   0.308  0.380E+00  0.360E+00
   0.328  0.381E+00  0.360E+00
   0.348  0.381E+00  0.360E+00
   0.368  0.383E+00  0.360E+00
   0.388  0.384E+00  0.361E+00
   0.408  0.387E+00  0.363E+00
   0.428  0.390E+00  0.365E+00
   0.448  0.394E+00  0.368E+00
   0.468  0.399E+00  0.372E+00
   0.488  0.404E+00  0.377E+00
   0.508  0.410E+00  0.382E+00
   0.528  0.417E+00  0.388E+00
   0.548  0.425E+00  0.394E+00
   0.568  0.434E+00  0.402E+00
   0.588  0.443E+00  0.410E+00
   0.608  0.453E+00  0.418E+00
   0.628  0.463E+00  0.428E+00
   0.648  0.474E+00  0.437E+00
   0.668  0.485E+00  0.448E+00
   0.688  0.497E+00  0.458E+00
   0.708  0.509E+00  0.469E+00
   0.728  0.521E+00  0.479E+00
   0.748  0.533E+00  0.490E+00
   0.768  0.544E+00  0.500E+00
   0.788  0.555E+00  0.510E+00
   0.808  0.566E+00  0.520E+00
   0.828  0.576E+00  0.529E+00
   0.848  0.585E+00  0.537E+00
   0.868  0.593E+00  0.544E+00
   0.888  0.600E+00  0.550E+00
   0.908  0.605E+00  0.555E+00
   0.928  0.610E+00  0.559E+00
   0.948  0.613E+00  0.562E+00
   0.968  0.614E+00  0.563E+00
   0.988  0.614E+00  0.563E+00
   1.008  0.613E+00  0.562E+00
   1.028  0.610E+00  0.559E+00
   1.048  0.605E+00  0.554E+00
   1.068  0.599E+00  0.549E+00
   1.088  0.592E+00  0.542E+00
   1.108  0.583E+00  0.534E+00
   1.128  0.574E+00  0.525E+00
   1.148  0.563E+00  0.515E+00
   1.168  0.551E+00  0.504E+00
   1.188  0.539E+00  0.493E+00
   1.208  0.526E+00  0.481E+00
   1.228  0.512E+00  0.468E+00
   1.248  0.498E+00  0.455E+00
   1.268  0.484E+00  0.442E+00
   1.288  0.470E+00  0.429E+00
   1.308  0.456E+00  0.416E+00
   1.328  0.443E+00  0.404E+00
   1.348  0.430E+00  0.392E+00
   1.368  0.417E+00  0.380E+00
   1.388  0.405E+00  0.369E+00
   1.408  0.394E+00  0.358E+00
   1.428  0.383E+00  0.349E+00
   1.448  0.374E+00  0.340E+00
   1.468  0.365E+00  0.332E+00
   1.488  0.357E+00  0.324E+00
   1.508  0.351E+00  0.318E+00
   1.528  0.345E+00  0.313E+00
   1.548  0.341E+00  0.308E+00
   1.568  0.337E+00  0.305E+00
   1.588  0.334E+00  0.302E+00
   1.608  0.333E+00  0.300E+00
   1.628  0.332E+00  0.299E+00
   1.648  0.332E+00  0.299E+00
   1.668  0.333E+00  0.299E+00
   1.688  0.335E+00  0.301E+00
   1.708  0.338E+00  0.302E+00
   1.728  0.341E+00  0.305E+00
   1.748  0.344E+00  0.307E+00
   1.768  0.348E+00  0.310E+00
   1.788  0.352E+00  0.314E+00
   1.808  0.357E+00  0.317E+00
   1.828  0.361E+00  0.321E+00
   1.848  0.366E+00  0.324E+00
   1.868  0.371E+00  0.328E+00
   1.888  0.375E+00  0.331E+00
   1.908  0.379E+00  0.334E+00
   1.928  0.383E+00  0.336E+00
   1.948  0.386E+00  0.339E+00
   1.968  0.389E+00  0.340E+00
   1.988  0.391E+00  0.342E+00
   2.008  0.392E+00  0.342E+00
   2.028  0.393E+00  0.342E+00
   2.048  0.393E+00  0.342E+00
   2.068  0.392E+00  0.340E+00
   2.088  0.391E+00  0.338E+00
   2.108  0.388E+00  0.335E+00
   2.128  0.385E+00  0.332E+00
   2.148  0.381E+00  0.328E+00
   2.168  0.376E+00  0.323E+00
   2.188  0.370E+00  0.317E+00
   2.208  0.364E+00  0.311E+00
   2.228  0.357E+00  0.304E+00
   2.248  0.349E+00  0.296E+00
   2.268  0.340E+00  0.288E+00
   2.288  0.331E+00  0.280E+00
   2.308  0.321E+00  0.271E+00
   2.328  0.311E+00  0.261E+00
   2.348  0.301E+00  0.252E+00
   2.368  0.290E+00  0.242E+00
   2.388  0.279E+00  0.232E+00
   2.408  0.268E+00  0.221E+00
   2.428  0.257E+00  0.211E+00
   2.448  0.245E+00  0.201E+00
   2.468  0.234E+00  0.191E+00
   2.488  0.224E+00  0.180E+00
   2.508  0.213E+00  0.170E+00
   2.528  0.203E+00  0.161E+00
   2.548  0.193E+00  0.151E+00
   2.568  0.184E+00  0.142E+00
   2.588  0.175E+00  0.134E+00
   2.608  0.167E+00  0.126E+00
   2.628  0.159E+00  0.118E+00
   2.648  0.152E+00  0.111E+00
   2.668  0.146E+00  0.104E+00
   2.688  0.141E+00  0.980E-01
   2.708  0.136E+00  0.925E-01
   2.728  0.133E+00  0.877E-01
   2.748  0.130E+00  0.834E-01
   2.768  0.127E+00  0.797E-01
   2.788  0.126E+00  0.765E-01
   2.808  0.125E+00  0.740E-01
   2.828  0.125E+00  0.720E-01
   2.848  0.126E+00  0.705E-01
   2.868  0.127E+00  0.696E-01
   2.888  0.128E+00  0.691E-01
   2.908  0.131E+00  0.691E-01
   2.928  0.133E+00  0.695E-01
   2.948  0.136E+00  0.703E-01
   2.968  0.139E+00  0.714E-01
   2.988  0.143E+00  0.729E-01
   3.008  0.147E+00  0.747E-01
   3.028  0.151E+00  0.767E-01
   3.048  0.155E+00  0.789E-01
   3.068  0.159E+00  0.813E-01
   3.088  0.163E+00  0.839E-01
   3.108  0.167E+00  0.866E-01
   3.128  0.171E+00  0.895E-01
   3.148  0.174E+00  0.924E-01
   3.168  0.178E+00  0.954E-01
   3.188  0.182E+00  0.984E-01
   3.208  0.185E+00  0.102E+00
   3.228  0.188E+00  0.105E+00
   3.248  0.191E+00  0.108E+00
   3.268  0.194E+00  0.111E+00
   3.288  0.196E+00  0.114E+00
   3.308  0.199E+00  0.118E+00
   3.328  0.201E+00  0.121E+00
   3.348  0.204E+00  0.124E+00
   3.368  0.206E+00  0.128E+00
   3.388  0.208E+00  0.131E+00
   3.408  0.211E+00  0.135E+00
   3.428  0.213E+00  0.139E+00
   3.448  0.216E+00  0.143E+00
   3.468  0.219E+00  0.147E+00
   3.488  0.223E+00  0.152E+00
   3.508  0.226E+00  0.157E+00
   3.528  0.230E+00  0.162E+00
   3.548  0.235E+00  0.167E+00
   3.568  0.240E+00  0.173E+00
   3.588  0.246E+00  0.180E+00
   3.608  0.253E+00  0.186E+00
   3.628  0.260E+00  0.193E+00
   3.648  0.268E+00  0.201E+00
   3.668  0.277E+00  0.209E+00
   3.688  0.287E+00  0.218E+00
   3.708  0.297E+00  0.227E+00
   3.728  0.309E+00  0.237E+00
   3.748  0.321E+00  0.247E+00
   3.768  0.335E+00  0.258E+00
   3.788  0.349E+00  0.270E+00
   3.808  0.364E+00  0.281E+00
   3.828  0.380E+00  0.294E+00
   3.848  0.397E+00  0.306E+00
   3.868  0.414E+00  0.319E+00
   3.888  0.432E+00  0.333E+00
   3.908  0.451E+00  0.346E+00
   3.928  0.469E+00  0.360E+00
   3.948  0.489E+00  0.374E+00
   3.968  0.508E+00  0.387E+00
   3.988  0.527E+00  0.401E+00
   4.008  0.547E+00  0.415E+00
   4.028  0.566E+00  0.428E+00
   4.048  0.584E+00  0.440E+00
   4.068  0.602E+00  0.453E+00
   4.088  0.619E+00  0.464E+00
   4.108  0.635E+00  0.475E+00
   4.128  0.650E+00  0.485E+00
   4.148  0.663E+00  0.494E+00
   4.168  0.675E+00  0.501E+00
   4.188  0.686E+00  0.508E+00
   4.208  0.694E+00  0.514E+00
   4.228  0.701E+00  0.518E+00
   4.248  0.706E+00  0.521E+00
   4.268  0.709E+00  0.522E+00
   4.288  0.710E+00  0.522E+00
   4.308  0.709E+00  0.521E+00
   4.328  0.706E+00  0.518E+00
   4.348  0.701E+00  0.514E+00
   4.368  0.694E+00  0.509E+00
   4.388  0.685E+00  0.502E+00
   4.408  0.675E+00  0.494E+00
   4.428  0.663E+00  0.486E+00
   4.448  0.650E+00  0.476E+00
   4.468  0.636E+00  0.466E+00
   4.488  0.621E+00  0.455E+00
   4.508  0.605E+00  0.443E+00
   4.528  0.588E+00  0.431E+00
   4.548  0.571E+00  0.419E+00
   4.568  0.554E+00  0.407E+00
   4.588  0.537E+00  0.395E+00
   4.608  0.521E+00  0.383E+00
   4.628  0.505E+00  0.372E+00
   4.648  0.489E+00  0.361E+00
   4.668  0.474E+00  0.350E+00
   4.688  0.460E+00  0.340E+00
   4.708  0.447E+00  0.331E+00
   4.728  0.435E+00  0.322E+00
   4.748  0.425E+00  0.315E+00
   4.768  0.415E+00  0.308E+00
   4.788  0.407E+00  0.302E+00
   4.808  0.400E+00  0.297E+00
   4.828  0.394E+00  0.293E+00
   4.848  0.390E+00  0.290E+00
   4.868  0.386E+00  0.288E+00
   4.888  0.384E+00  0.286E+00
   4.908  0.383E+00  0.285E+00
   4.928  0.382E+00  0.285E+00
   4.948  0.383E+00  0.286E+00
   4.968  0.385E+00  0.287E+00
   4.988  0.387E+00  0.289E+00
   5.008  0.390E+00  0.291E+00
   5.028  0.394E+00  0.294E+00
   5.048  0.399E+00  0.297E+00
   5.068  0.403E+00  0.301E+00
   5.088  0.409E+00  0.305E+00
   5.108  0.414E+00  0.309E+00
   5.128  0.420E+00  0.314E+00
   5.148  0.426E+00  0.318E+00
   5.168  0.433E+00  0.323E+00
   5.188  0.439E+00  0.327E+00
   5.208  0.445E+00  0.332E+00
   5.228  0.452E+00  0.337E+00
   5.248  0.458E+00  0.342E+00
   5.268  0.464E+00  0.346E+00
   5.288  0.470E+00  0.350E+00
   5.308  0.475E+00  0.354E+00
   5.328  0.481E+00  0.358E+00
   5.348  0.485E+00  0.362E+00
   5.368  0.490E+00  0.365E+00
   5.388  0.494E+00  0.368E+00
   5.408  0.497E+00  0.371E+00
   5.428  0.500E+00  0.373E+00
   5.448  0.502E+00  0.374E+00
   5.468  0.503E+00  0.376E+00
   5.488  0.504E+00  0.376E+00
   5.508  0.504E+00  0.376E+00
   5.528  0.503E+00  0.376E+00
   5.548  0.502E+00  0.375E+00
   5.568  0.500E+00  0.374E+00
   5.588  0.497E+00  0.371E+00
   5.608  0.494E+00  0.369E+00
   5.628  0.490E+00  0.366E+00
   5.648  0.485E+00  0.362E+00
   5.668  0.479E+00  0.358E+00
   5.688  0.473E+00  0.354E+00
   5.708  0.467E+00  0.349E+00
   5.728  0.460E+00  0.343E+00
   5.748  0.452E+00  0.338E+00
   5.768  0.445E+00  0.332E+00
   5.788  0.437E+00  0.326E+00
   5.808  0.429E+00  0.320E+00
   5.828  0.421E+00  0.313E+00
   5.848  0.413E+00  0.307E+00
   5.868  0.405E+00  0.301E+00
   5.888  0.397E+00  0.295E+00
   5.908  0.390E+00  0.289E+00
   5.928  0.383E+00  0.284E+00
   5.948  0.376E+00  0.279E+00
   5.968  0.370E+00  0.274E+00
   5.988  0.365E+00  0.269E+00
   6.008  0.360E+00  0.266E+00
   6.028  0.356E+00  0.262E+00
   6.048  0.353E+00  0.260E+00
   6.068  0.351E+00  0.258E+00
   6.088  0.349E+00  0.256E+00
   6.108  0.349E+00  0.256E+00
   6.128  0.350E+00  0.256E+00
   6.148  0.351E+00  0.257E+00
   6.168  0.354E+00  0.258E+00
   6.188  0.357E+00  0.260E+00
   6.208  0.362E+00  0.263E+00
   6.228  0.367E+00  0.267E+00
   6.248  0.373E+00  0.271E+00
   6.268  0.380E+00  0.276E+00
   6.288  0.388E+00  0.282E+00
   6.308  0.396E+00  0.288E+00
   6.328  0.405E+00  0.295E+00
   6.348  0.415E+00  0.302E+00
   6.368  0.425E+00  0.309E+00
   6.388  0.435E+00  0.317E+00
   6.408  0.446E+00  0.325E+00
   6.428  0.457E+00  0.333E+00
   6.448  0.468E+00  0.342E+00
   6.468  0.480E+00  0.350E+00
   6.488  0.491E+00  0.359E+00
   6.508  0.502E+00  0.367E+00
   6.528  0.513E+00  0.376E+00
   6.548  0.524E+00  0.384E+00
   6.568  0.535E+00  0.392E+00
   6.588  0.545E+00  0.400E+00
   6.608  0.554E+00  0.407E+00
   6.628  0.563E+00  0.414E+00
   6.648  0.572E+00  0.421E+00
   6.668  0.580E+00  0.427E+00
   6.688  0.587E+00  0.433E+00
   6.708  0.594E+00  0.438E+00
   6.728  0.600E+00  0.442E+00
   6.748  0.605E+00  0.446E+00
   6.768  0.609E+00  0.450E+00
   6.788  0.613E+00  0.452E+00
   6.808  0.616E+00  0.454E+00
   6.828  0.618E+00  0.456E+00
   6.848  0.620E+00  0.457E+00
   6.868  0.621E+00  0.457E+00
   6.888  0.621E+00  0.456E+00
   6.908  0.620E+00  0.455E+00
   6.928  0.619E+00  0.454E+00
   6.948  0.618E+00  0.452E+00
   6.968  0.616E+00  0.449E+00
   6.988  0.613E+00  0.446E+00
   7.008  0.610E+00  0.443E+00
   7.028  0.607E+00  0.439E+00
   7.048  0.603E+00  0.435E+00
   7.068  0.599E+00  0.431E+00
   7.088  0.595E+00  0.427E+00
   7.108  0.590E+00  0.422E+00
   7.128  0.586E+00  0.418E+00
   7.148  0.582E+00  0.413E+00
   7.168  0.577E+00  0.409E+00
   7.188  0.573E+00  0.404E+00
   7.208  0.569E+00  0.400E+00
   7.228  0.565E+00  0.396E+00
   7.248  0.561E+00  0.392E+00
   7.268  0.558E+00  0.388E+00
   7.288  0.555E+00  0.385E+00
   7.308  0.553E+00  0.382E+00
   7.328  0.551E+00  0.379E+00
   7.348  0.550E+00  0.377E+00
   7.368  0.550E+00  0.375E+00
   7.388  0.550E+00  0.374E+00
   7.408  0.551E+00  0.372E+00
   7.428  0.552E+00  0.372E+00
   7.448  0.554E+00  0.372E+00
   7.468  0.558E+00  0.372E+00
   7.488  0.561E+00  0.372E+00
   7.508  0.566E+00  0.373E+00
   7.528  0.572E+00  0.375E+00
   7.548  0.578E+00  0.376E+00
   7.568  0.584E+00  0.378E+00
   7.588  0.592E+00  0.381E+00
   7.608  0.600E+00  0.383E+00
   7.628  0.608E+00  0.386E+00
   7.648  0.617E+00  0.388E+00
   7.668  0.625E+00  0.391E+00
   7.688  0.634E+00  0.394E+00
   7.708  0.643E+00  0.397E+00
   7.728  0.652E+00  0.400E+00
   7.748  0.660E+00  0.402E+00
   7.768  0.668E+00  0.404E+00
   7.788  0.676E+00  0.406E+00
   7.808  0.682E+00  0.408E+00
   7.828  0.688E+00  0.409E+00
   7.848  0.693E+00  0.410E+00
   7.868  0.697E+00  0.410E+00
   7.888  0.699E+00  0.409E+00
   7.908  0.700E+00  0.408E+00
   7.928  0.700E+00  0.406E+00
   7.948  0.699E+00  0.404E+00
   7.968  0.696E+00  0.401E+00
   7.988  0.692E+00  0.397E+00
   8.008  0.687E+00  0.393E+00
   8.028  0.680E+00  0.388E+00
   8.048  0.672E+00  0.383E+00
   8.068  0.662E+00  0.376E+00
   8.088  0.652E+00  0.370E+00
   8.108  0.640E+00  0.362E+00
   8.128  0.628E+00  0.355E+00
   8.148  0.614E+00  0.347E+00
   8.168  0.600E+00  0.338E+00
   8.188  0.586E+00  0.330E+00
   8.208  0.571E+00  0.321E+00
   8.228  0.556E+00  0.312E+00
   8.248  0.540E+00  0.303E+00
   8.268  0.525E+00  0.294E+00
   8.288  0.510E+00  0.285E+00
   8.308  0.495E+00  0.276E+00
   8.328  0.480E+00  0.268E+00
   8.348  0.466E+00  0.259E+00
   8.368  0.453E+00  0.251E+00
   8.388  0.440E+00  0.243E+00
   8.408  0.428E+00  0.236E+00
   8.428  0.417E+00  0.229E+00
   8.448  0.407E+00  0.223E+00
   8.468  0.397E+00  0.217E+00
   8.488  0.389E+00  0.211E+00
   8.508  0.381E+00  0.206E+00
   8.528  0.375E+00  0.202E+00
   8.548  0.370E+00  0.198E+00
   8.568  0.365E+00  0.195E+00
   8.588  0.362E+00  0.193E+00
   8.608  0.360E+00  0.191E+00
   8.628  0.359E+00  0.190E+00
   8.648  0.359E+00  0.189E+00
   8.668  0.360E+00  0.189E+00
