# E (eV)  dos(E)    pdos(E)
  -4.673  0.783E-06  0.777E-06
  -4.653  0.988E-06  0.980E-06
  -4.633  0.124E-05  0.123E-05
  -4.613  0.156E-05  0.155E-05
  -4.593  0.195E-05  0.194E-05
  -4.573  0.244E-05  0.242E-05
  -4.553  0.304E-05  0.302E-05
  -4.533  0.378E-05  0.375E-05
  -4.513  0.469E-05  0.465E-05
  -4.493  0.580E-05  0.575E-05
  -4.473  0.715E-05  0.709E-05
  -4.453  0.880E-05  0.873E-05
  -4.433  0.108E-04  0.107E-04
  -4.413  0.132E-04  0.131E-04
  -4.393  0.161E-04  0.160E-04
  -4.373  0.197E-04  0.195E-04
  -4.353  0.239E-04  0.237E-04
  -4.333  0.290E-04  0.288E-04
  -4.313  0.350E-04  0.348E-04
  -4.293  0.423E-04  0.420E-04
  -4.273  0.509E-04  0.505E-04
  -4.253  0.611E-04  0.606E-04
  -4.233  0.731E-04  0.726E-04
  -4.213  0.874E-04  0.867E-04
  -4.193  0.104E-03  0.103E-03
  -4.173  0.124E-03  0.123E-03
  -4.153  0.147E-03  0.146E-03
  -4.133  0.174E-03  0.172E-03
  -4.113  0.205E-03  0.203E-03
  -4.093  0.241E-03  0.239E-03
  -4.073  0.283E-03  0.281E-03
  -4.053  0.332E-03  0.329E-03
  -4.033  0.388E-03  0.385E-03
  -4.013  0.452E-03  0.449E-03
  -3.993  0.526E-03  0.522E-03
  -3.973  0.611E-03  0.606E-03
  -3.953  0.707E-03  0.702E-03
  -3.933  0.817E-03  0.811E-03
  -3.913  0.941E-03  0.934E-03
  -3.893  0.108E-02  0.107E-02
  -3.873  0.124E-02  0.123E-02
  -3.853  0.142E-02  0.141E-02
  -3.833  0.162E-02  0.161E-02
  -3.813  0.185E-02  0.183E-02
  -3.793  0.210E-02  0.209E-02
  -3.773  0.238E-02  0.236E-02
  -3.753  0.270E-02  0.268E-02
  -3.733  0.304E-02  0.302E-02
  -3.713  0.343E-02  0.340E-02
  -3.693  0.385E-02  0.382E-02
  -3.673  0.432E-02  0.429E-02
  -3.653  0.483E-02  0.480E-02
  -3.633  0.540E-02  0.536E-02
  -3.613  0.601E-02  0.597E-02
  -3.593  0.668E-02  0.663E-02
  -3.573  0.741E-02  0.736E-02
  -3.553  0.821E-02  0.815E-02
  -3.533  0.907E-02  0.900E-02
  -3.513  0.999E-02  0.992E-02
  -3.493  0.110E-01  0.109E-01
  -3.473  0.121E-01  0.120E-01
  -3.453  0.132E-01  0.131E-01
  -3.433  0.144E-01  0.143E-01
  -3.413  0.158E-01  0.156E-01
  -3.393  0.172E-01  0.170E-01
  -3.373  0.186E-01  0.185E-01
  -3.353  0.202E-01  0.201E-01
  -3.333  0.219E-01  0.217E-01
  -3.313  0.236E-01  0.235E-01
  -3.293  0.255E-01  0.253E-01
  -3.273  0.274E-01  0.272E-01
  -3.253  0.295E-01  0.292E-01
  -3.233  0.316E-01  0.314E-01
  -3.213  0.338E-01  0.336E-01
  -3.193  0.361E-01  0.359E-01
  -3.173  0.385E-01  0.382E-01
  -3.153  0.410E-01  0.407E-01
  -3.133  0.436E-01  0.433E-01
  -3.113  0.462E-01  0.459E-01
  -3.093  0.490E-01  0.486E-01
  -3.073  0.518E-01  0.514E-01
  -3.053  0.547E-01  0.543E-01
  -3.033  0.576E-01  0.572E-01
  -3.013  0.606E-01  0.602E-01
  -2.993  0.637E-01  0.633E-01
  -2.973  0.669E-01  0.664E-01
  -2.953  0.700E-01  0.695E-01
  -2.933  0.733E-01  0.727E-01
  -2.913  0.766E-01  0.760E-01
  -2.893  0.799E-01  0.793E-01
  -2.873  0.832E-01  0.826E-01
  -2.853  0.866E-01  0.859E-01
  -2.833  0.900E-01  0.893E-01
  -2.813  0.934E-01  0.927E-01
  -2.793  0.968E-01  0.961E-01
  -2.773  0.100E+00  0.995E-01
  -2.753  0.104E+00  0.103E+00
  -2.733  0.107E+00  0.106E+00
  -2.713  0.110E+00  0.110E+00
  -2.693  0.114E+00  0.113E+00
  -2.673  0.117E+00  0.116E+00
  -2.653  0.121E+00  0.120E+00
  -2.633  0.124E+00  0.123E+00
  -2.613  0.127E+00  0.126E+00
  -2.593  0.130E+00  0.130E+00
  -2.573  0.134E+00  0.133E+00
  -2.553  0.137E+00  0.136E+00
  -2.533  0.140E+00  0.139E+00
  -2.513  0.143E+00  0.142E+00
  -2.493  0.146E+00  0.145E+00
  -2.473  0.149E+00  0.148E+00
  -2.453  0.152E+00  0.151E+00
  -2.433  0.155E+00  0.154E+00
  -2.413  0.158E+00  0.157E+00
  -2.393  0.161E+00  0.160E+00
  -2.373  0.164E+00  0.163E+00
  -2.353  0.167E+00  0.166E+00
  -2.333  0.170E+00  0.168E+00
  -2.313  0.172E+00  0.171E+00
  -2.293  0.175E+00  0.174E+00
  -2.273  0.178E+00  0.176E+00
  -2.253  0.180E+00  0.179E+00
  -2.233  0.183E+00  0.182E+00
  -2.213  0.185E+00  0.184E+00
  -2.193  0.188E+00  0.187E+00
  -2.173  0.190E+00  0.189E+00
  -2.153  0.193E+00  0.191E+00
  -2.133  0.195E+00  0.194E+00
  -2.113  0.198E+00  0.196E+00
  -2.093  0.200E+00  0.198E+00
  -2.073  0.202E+00  0.201E+00
  -2.053  0.205E+00  0.203E+00
  -2.033  0.207E+00  0.205E+00
  -2.013  0.209E+00  0.207E+00
  -1.993  0.211E+00  0.209E+00
  -1.973  0.213E+00  0.211E+00
  -1.953  0.215E+00  0.214E+00
  -1.933  0.218E+00  0.216E+00
  -1.913  0.220E+00  0.218E+00
  -1.893  0.222E+00  0.220E+00
  -1.873  0.224E+00  0.222E+00
  -1.853  0.226E+00  0.224E+00
  -1.833  0.228E+00  0.226E+00
  -1.813  0.230E+00  0.228E+00
  -1.793  0.232E+00  0.230E+00
  -1.773  0.234E+00  0.231E+00
  -1.753  0.236E+00  0.233E+00
  -1.733  0.238E+00  0.235E+00
  -1.713  0.240E+00  0.237E+00
  -1.693  0.241E+00  0.239E+00
  -1.673  0.243E+00  0.241E+00
  -1.653  0.245E+00  0.243E+00
  -1.633  0.247E+00  0.244E+00
  -1.613  0.249E+00  0.246E+00
  -1.593  0.251E+00  0.248E+00
  -1.573  0.253E+00  0.250E+00
  -1.553  0.254E+00  0.252E+00
  -1.533  0.256E+00  0.253E+00
  -1.513  0.258E+00  0.255E+00
  -1.493  0.260E+00  0.257E+00
  -1.473  0.262E+00  0.258E+00
  -1.453  0.263E+00  0.260E+00
  -1.433  0.265E+00  0.262E+00
  -1.413  0.267E+00  0.264E+00
  -1.393  0.269E+00  0.265E+00
  -1.373  0.270E+00  0.267E+00
  -1.353  0.272E+00  0.269E+00
  -1.333  0.274E+00  0.270E+00
  -1.313  0.275E+00  0.272E+00
  -1.293  0.277E+00  0.273E+00
  -1.273  0.279E+00  0.275E+00
  -1.253  0.281E+00  0.277E+00
  -1.233  0.282E+00  0.278E+00
  -1.213  0.284E+00  0.280E+00
  -1.193  0.286E+00  0.282E+00
  -1.173  0.287E+00  0.283E+00
  -1.153  0.289E+00  0.285E+00
  -1.133  0.291E+00  0.286E+00
  -1.113  0.292E+00  0.288E+00
  -1.093  0.294E+00  0.290E+00
  -1.073  0.296E+00  0.291E+00
  -1.053  0.297E+00  0.293E+00
  -1.033  0.299E+00  0.294E+00
  -1.013  0.301E+00  0.296E+00
  -0.993  0.302E+00  0.297E+00
  -0.973  0.304E+00  0.299E+00
  -0.953  0.306E+00  0.301E+00
  -0.933  0.307E+00  0.302E+00
  -0.913  0.309E+00  0.304E+00
  -0.893  0.311E+00  0.305E+00
  -0.873  0.312E+00  0.307E+00
  -0.853  0.314E+00  0.308E+00
  -0.833  0.316E+00  0.310E+00
  -0.813  0.317E+00  0.312E+00
  -0.793  0.319E+00  0.313E+00
  -0.773  0.321E+00  0.315E+00
  -0.753  0.322E+00  0.316E+00
  -0.733  0.324E+00  0.318E+00
  -0.713  0.326E+00  0.319E+00
  -0.693  0.327E+00  0.321E+00
  -0.673  0.329E+00  0.323E+00
  -0.653  0.331E+00  0.324E+00
  -0.633  0.332E+00  0.326E+00
  -0.613  0.334E+00  0.327E+00
  -0.593  0.336E+00  0.329E+00
  -0.573  0.337E+00  0.330E+00
  -0.553  0.339E+00  0.332E+00
  -0.533  0.341E+00  0.334E+00
  -0.513  0.343E+00  0.335E+00
  -0.493  0.344E+00  0.337E+00
  -0.473  0.346E+00  0.338E+00
  -0.453  0.348E+00  0.340E+00
  -0.433  0.350E+00  0.342E+00
  -0.413  0.351E+00  0.343E+00
  -0.393  0.353E+00  0.345E+00
  -0.373  0.355E+00  0.346E+00
  -0.353  0.357E+00  0.348E+00
  -0.333  0.359E+00  0.350E+00
  -0.313  0.361E+00  0.351E+00
  -0.293  0.363E+00  0.353E+00
  -0.273  0.365E+00  0.355E+00
  -0.253  0.366E+00  0.356E+00
  -0.233  0.368E+00  0.358E+00
  -0.213  0.370E+00  0.360E+00
  -0.193  0.372E+00  0.362E+00
  -0.173  0.375E+00  0.363E+00
  -0.153  0.377E+00  0.365E+00
  -0.133  0.379E+00  0.367E+00
  -0.113  0.381E+00  0.369E+00
  -0.093  0.383E+00  0.370E+00
  -0.073  0.385E+00  0.372E+00
  -0.053  0.387E+00  0.374E+00
  -0.033  0.390E+00  0.376E+00
  -0.013  0.392E+00  0.378E+00
   0.007  0.394E+00  0.380E+00
   0.027  0.397E+00  0.382E+00
   0.047  0.399E+00  0.384E+00
   0.067  0.402E+00  0.386E+00
   0.087  0.404E+00  0.387E+00
   0.107  0.407E+00  0.389E+00
   0.127  0.409E+00  0.392E+00
   0.147  0.412E+00  0.394E+00
   0.167  0.415E+00  0.396E+00
   0.187  0.417E+00  0.398E+00
   0.207  0.420E+00  0.400E+00
   0.227  0.423E+00  0.402E+00
   0.247  0.426E+00  0.404E+00
   0.267  0.429E+00  0.406E+00
   0.287  0.432E+00  0.409E+00
   0.307  0.434E+00  0.411E+00
   0.327  0.437E+00  0.413E+00
   0.347  0.440E+00  0.415E+00
   0.367  0.443E+00  0.417E+00
   0.387  0.446E+00  0.420E+00
   0.407  0.449E+00  0.422E+00
   0.427  0.452E+00  0.424E+00
   0.447  0.455E+00  0.426E+00
   0.467  0.458E+00  0.428E+00
   0.487  0.461E+00  0.431E+00
   0.507  0.464E+00  0.433E+00
   0.527  0.467E+00  0.435E+00
   0.547  0.470E+00  0.437E+00
   0.567  0.472E+00  0.439E+00
   0.587  0.475E+00  0.441E+00
   0.607  0.478E+00  0.443E+00
   0.627  0.480E+00  0.445E+00
   0.647  0.483E+00  0.446E+00
   0.667  0.485E+00  0.448E+00
   0.687  0.487E+00  0.449E+00
   0.707  0.489E+00  0.451E+00
   0.727  0.491E+00  0.452E+00
   0.747  0.493E+00  0.454E+00
   0.767  0.494E+00  0.455E+00
   0.787  0.496E+00  0.456E+00
   0.807  0.497E+00  0.457E+00
   0.827  0.498E+00  0.457E+00
   0.847  0.499E+00  0.458E+00
   0.867  0.500E+00  0.459E+00
   0.887  0.501E+00  0.459E+00
   0.907  0.501E+00  0.459E+00
   0.927  0.502E+00  0.459E+00
   0.947  0.502E+00  0.459E+00
   0.967  0.502E+00  0.459E+00
   0.987  0.502E+00  0.459E+00
   1.007  0.501E+00  0.458E+00
   1.027  0.501E+00  0.458E+00
   1.047  0.500E+00  0.457E+00
   1.067  0.499E+00  0.456E+00
   1.087  0.498E+00  0.455E+00
   1.107  0.496E+00  0.453E+00
   1.127  0.495E+00  0.452E+00
   1.147  0.493E+00  0.450E+00
   1.167  0.491E+00  0.449E+00
   1.187  0.489E+00  0.447E+00
   1.207  0.487E+00  0.445E+00
   1.227  0.485E+00  0.442E+00
   1.247  0.482E+00  0.440E+00
   1.267  0.480E+00  0.438E+00
   1.287  0.477E+00  0.435E+00
   1.307  0.474E+00  0.432E+00
   1.327  0.471E+00  0.429E+00
   1.347  0.468E+00  0.426E+00
   1.367  0.465E+00  0.423E+00
   1.387  0.461E+00  0.420E+00
   1.407  0.458E+00  0.416E+00
   1.427  0.454E+00  0.413E+00
   1.447  0.450E+00  0.409E+00
   1.467  0.447E+00  0.406E+00
   1.487  0.443E+00  0.402E+00
   1.507  0.439E+00  0.398E+00
   1.527  0.435E+00  0.394E+00
   1.547  0.431E+00  0.391E+00
   1.567  0.427E+00  0.387E+00
   1.587  0.423E+00  0.383E+00
   1.607  0.419E+00  0.379E+00
   1.627  0.415E+00  0.374E+00
   1.647  0.411E+00  0.370E+00
   1.667  0.407E+00  0.366E+00
   1.687  0.403E+00  0.362E+00
   1.707  0.399E+00  0.358E+00
   1.727  0.395E+00  0.354E+00
   1.747  0.391E+00  0.349E+00
   1.767  0.387E+00  0.345E+00
   1.787  0.382E+00  0.341E+00
   1.807  0.378E+00  0.336E+00
   1.827  0.374E+00  0.332E+00
   1.847  0.370E+00  0.328E+00
   1.867  0.366E+00  0.323E+00
   1.887  0.362E+00  0.319E+00
   1.907  0.357E+00  0.314E+00
   1.927  0.353E+00  0.310E+00
   1.947  0.349E+00  0.305E+00
   1.967  0.344E+00  0.301E+00
   1.987  0.340E+00  0.296E+00
   2.007  0.336E+00  0.292E+00
   2.027  0.332E+00  0.287E+00
   2.047  0.327E+00  0.283E+00
   2.067  0.323E+00  0.278E+00
   2.087  0.319E+00  0.273E+00
   2.107  0.314E+00  0.269E+00
   2.127  0.310E+00  0.264E+00
   2.147  0.305E+00  0.259E+00
   2.167  0.301E+00  0.255E+00
   2.187  0.297E+00  0.250E+00
   2.207  0.292E+00  0.245E+00
   2.227  0.288E+00  0.241E+00
   2.247  0.284E+00  0.236E+00
   2.267  0.280E+00  0.232E+00
   2.287  0.275E+00  0.227E+00
   2.307  0.271E+00  0.223E+00
   2.327  0.267E+00  0.218E+00
   2.347  0.263E+00  0.214E+00
   2.367  0.259E+00  0.210E+00
   2.387  0.255E+00  0.205E+00
   2.407  0.251E+00  0.201E+00
   2.427  0.247E+00  0.197E+00
   2.447  0.243E+00  0.193E+00
   2.467  0.239E+00  0.189E+00
   2.487  0.235E+00  0.184E+00
   2.507  0.232E+00  0.180E+00
   2.527  0.228E+00  0.177E+00
   2.547  0.224E+00  0.173E+00
   2.567  0.221E+00  0.169E+00
   2.587  0.217E+00  0.165E+00
   2.607  0.214E+00  0.161E+00
   2.627  0.210E+00  0.158E+00
   2.647  0.207E+00  0.154E+00
   2.667  0.204E+00  0.151E+00
   2.687  0.201E+00  0.147E+00
   2.707  0.198E+00  0.144E+00
   2.727  0.195E+00  0.141E+00
   2.747  0.192E+00  0.138E+00
   2.767  0.189E+00  0.135E+00
   2.787  0.186E+00  0.132E+00
   2.807  0.184E+00  0.129E+00
   2.827  0.181E+00  0.126E+00
   2.847  0.179E+00  0.124E+00
   2.867  0.177E+00  0.121E+00
   2.887  0.175E+00  0.119E+00
   2.907  0.173E+00  0.117E+00
   2.927  0.172E+00  0.115E+00
   2.947  0.171E+00  0.113E+00
   2.967  0.170E+00  0.112E+00
   2.987  0.169E+00  0.110E+00
   3.007  0.168E+00  0.109E+00
   3.027  0.168E+00  0.108E+00
   3.047  0.168E+00  0.108E+00
   3.067  0.168E+00  0.107E+00
   3.087  0.169E+00  0.107E+00
   3.107  0.170E+00  0.107E+00
   3.127  0.171E+00  0.108E+00
   3.147  0.172E+00  0.108E+00
   3.167  0.174E+00  0.109E+00
   3.187  0.177E+00  0.111E+00
   3.207  0.179E+00  0.112E+00
   3.227  0.182E+00  0.114E+00
   3.247  0.186E+00  0.116E+00
   3.267  0.189E+00  0.119E+00
   3.287  0.193E+00  0.122E+00
   3.307  0.198E+00  0.125E+00
   3.327  0.203E+00  0.129E+00
   3.347  0.208E+00  0.133E+00
   3.367  0.214E+00  0.137E+00
   3.387  0.220E+00  0.141E+00
   3.407  0.226E+00  0.146E+00
   3.427  0.233E+00  0.152E+00
   3.447  0.240E+00  0.157E+00
   3.467  0.248E+00  0.163E+00
   3.487  0.256E+00  0.170E+00
   3.507  0.264E+00  0.176E+00
   3.527  0.272E+00  0.183E+00
   3.547  0.281E+00  0.190E+00
   3.567  0.290E+00  0.197E+00
   3.587  0.300E+00  0.205E+00
   3.607  0.310E+00  0.213E+00
   3.627  0.319E+00  0.221E+00
   3.647  0.329E+00  0.229E+00
   3.667  0.340E+00  0.238E+00
   3.687  0.350E+00  0.246E+00
   3.707  0.360E+00  0.255E+00
   3.727  0.371E+00  0.263E+00
   3.747  0.381E+00  0.272E+00
   3.767  0.392E+00  0.281E+00
   3.787  0.403E+00  0.289E+00
   3.807  0.413E+00  0.298E+00
   3.827  0.423E+00  0.306E+00
   3.847  0.433E+00  0.315E+00
   3.867  0.443E+00  0.323E+00
   3.887  0.453E+00  0.331E+00
   3.907  0.463E+00  0.339E+00
   3.927  0.472E+00  0.346E+00
   3.947  0.481E+00  0.353E+00
   3.967  0.489E+00  0.360E+00
   3.987  0.497E+00  0.367E+00
   4.007  0.505E+00  0.374E+00
   4.027  0.513E+00  0.380E+00
   4.047  0.520E+00  0.385E+00
   4.067  0.526E+00  0.390E+00
   4.087  0.532E+00  0.395E+00
   4.107  0.538E+00  0.400E+00
   4.127  0.543E+00  0.404E+00
   4.147  0.547E+00  0.407E+00
   4.167  0.551E+00  0.411E+00
   4.187  0.555E+00  0.413E+00
   4.207  0.558E+00  0.416E+00
   4.227  0.561E+00  0.418E+00
   4.247  0.563E+00  0.420E+00
   4.267  0.564E+00  0.421E+00
   4.287  0.566E+00  0.422E+00
   4.307  0.567E+00  0.422E+00
   4.327  0.567E+00  0.423E+00
   4.347  0.567E+00  0.423E+00
   4.367  0.567E+00  0.422E+00
   4.387  0.566E+00  0.422E+00
   4.407  0.565E+00  0.421E+00
   4.427  0.564E+00  0.420E+00
   4.447  0.563E+00  0.418E+00
   4.467  0.561E+00  0.417E+00
   4.487  0.559E+00  0.415E+00
   4.507  0.556E+00  0.413E+00
   4.527  0.554E+00  0.411E+00
   4.547  0.551E+00  0.409E+00
   4.567  0.549E+00  0.407E+00
   4.587  0.546E+00  0.404E+00
   4.607  0.543E+00  0.402E+00
   4.627  0.539E+00  0.399E+00
   4.647  0.536E+00  0.397E+00
   4.667  0.533E+00  0.394E+00
   4.687  0.530E+00  0.392E+00
   4.707  0.526E+00  0.389E+00
   4.727  0.523E+00  0.386E+00
   4.747  0.519E+00  0.384E+00
   4.767  0.516E+00  0.381E+00
   4.787  0.512E+00  0.378E+00
   4.807  0.509E+00  0.376E+00
   4.827  0.505E+00  0.373E+00
   4.847  0.502E+00  0.371E+00
   4.867  0.499E+00  0.368E+00
   4.887  0.495E+00  0.366E+00
   4.907  0.492E+00  0.363E+00
   4.927  0.489E+00  0.361E+00
   4.947  0.486E+00  0.359E+00
   4.967  0.483E+00  0.357E+00
   4.987  0.480E+00  0.354E+00
   5.007  0.477E+00  0.352E+00
   5.027  0.474E+00  0.350E+00
   5.047  0.471E+00  0.348E+00
   5.067  0.468E+00  0.346E+00
   5.087  0.465E+00  0.345E+00
   5.107  0.463E+00  0.343E+00
   5.127  0.460E+00  0.341E+00
   5.147  0.458E+00  0.339E+00
   5.167  0.455E+00  0.338E+00
   5.187  0.453E+00  0.336E+00
   5.207  0.450E+00  0.335E+00
   5.227  0.448E+00  0.333E+00
   5.247  0.446E+00  0.331E+00
   5.267  0.444E+00  0.330E+00
   5.287  0.442E+00  0.329E+00
   5.307  0.440E+00  0.327E+00
   5.327  0.438E+00  0.326E+00
   5.347  0.436E+00  0.324E+00
   5.367  0.434E+00  0.323E+00
   5.387  0.432E+00  0.322E+00
   5.407  0.430E+00  0.321E+00
   5.427  0.428E+00  0.319E+00
   5.447  0.426E+00  0.318E+00
   5.467  0.424E+00  0.317E+00
   5.487  0.423E+00  0.316E+00
   5.507  0.421E+00  0.314E+00
   5.527  0.420E+00  0.313E+00
   5.547  0.418E+00  0.312E+00
   5.567  0.417E+00  0.311E+00
   5.587  0.415E+00  0.310E+00
   5.607  0.414E+00  0.309E+00
   5.627  0.413E+00  0.308E+00
   5.647  0.412E+00  0.307E+00
   5.667  0.411E+00  0.307E+00
   5.687  0.410E+00  0.306E+00
   5.707  0.409E+00  0.305E+00
   5.727  0.408E+00  0.305E+00
   5.747  0.408E+00  0.304E+00
   5.767  0.408E+00  0.304E+00
   5.787  0.407E+00  0.303E+00
   5.807  0.407E+00  0.303E+00
   5.827  0.407E+00  0.303E+00
   5.847  0.408E+00  0.303E+00
   5.867  0.408E+00  0.303E+00
   5.887  0.408E+00  0.303E+00
   5.907  0.409E+00  0.304E+00
   5.927  0.410E+00  0.304E+00
   5.947  0.411E+00  0.305E+00
   5.967  0.412E+00  0.305E+00
   5.987  0.414E+00  0.306E+00
   6.007  0.415E+00  0.307E+00
   6.027  0.417E+00  0.308E+00
   6.047  0.419E+00  0.309E+00
   6.067  0.421E+00  0.311E+00
   6.087  0.423E+00  0.312E+00
   6.107  0.426E+00  0.314E+00
   6.127  0.428E+00  0.315E+00
   6.147  0.431E+00  0.317E+00
   6.167  0.434E+00  0.319E+00
   6.187  0.437E+00  0.321E+00
   6.207  0.440E+00  0.323E+00
   6.227  0.443E+00  0.326E+00
   6.247  0.447E+00  0.328E+00
   6.267  0.450E+00  0.330E+00
   6.287  0.454E+00  0.333E+00
   6.307  0.458E+00  0.336E+00
   6.327  0.462E+00  0.338E+00
   6.347  0.466E+00  0.341E+00
   6.367  0.470E+00  0.344E+00
   6.387  0.474E+00  0.347E+00
   6.407  0.478E+00  0.350E+00
   6.427  0.482E+00  0.353E+00
   6.447  0.486E+00  0.356E+00
   6.467  0.491E+00  0.359E+00
   6.487  0.495E+00  0.362E+00
   6.507  0.500E+00  0.365E+00
   6.527  0.504E+00  0.368E+00
   6.547  0.508E+00  0.372E+00
   6.567  0.513E+00  0.375E+00
   6.587  0.517E+00  0.378E+00
   6.607  0.522E+00  0.381E+00
   6.627  0.526E+00  0.384E+00
   6.647  0.531E+00  0.387E+00
   6.667  0.535E+00  0.390E+00
   6.687  0.540E+00  0.393E+00
   6.707  0.544E+00  0.396E+00
   6.727  0.548E+00  0.399E+00
   6.747  0.552E+00  0.402E+00
   6.767  0.557E+00  0.404E+00
   6.787  0.561E+00  0.407E+00
   6.807  0.565E+00  0.409E+00
   6.827  0.569E+00  0.412E+00
   6.847  0.573E+00  0.414E+00
   6.867  0.576E+00  0.416E+00
   6.887  0.580E+00  0.418E+00
   6.907  0.583E+00  0.420E+00
   6.927  0.587E+00  0.422E+00
   6.947  0.590E+00  0.423E+00
   6.967  0.593E+00  0.425E+00
   6.987  0.595E+00  0.426E+00
   7.007  0.598E+00  0.427E+00
   7.027  0.600E+00  0.428E+00
   7.047  0.603E+00  0.429E+00
   7.067  0.605E+00  0.429E+00
   7.087  0.606E+00  0.429E+00
   7.107  0.608E+00  0.430E+00
   7.127  0.609E+00  0.429E+00
   7.147  0.610E+00  0.429E+00
   7.167  0.611E+00  0.429E+00
   7.187  0.612E+00  0.428E+00
   7.207  0.612E+00  0.427E+00
   7.227  0.613E+00  0.426E+00
   7.247  0.613E+00  0.425E+00
   7.267  0.613E+00  0.424E+00
   7.287  0.612E+00  0.422E+00
   7.307  0.612E+00  0.420E+00
   7.327  0.611E+00  0.418E+00
   7.347  0.611E+00  0.416E+00
   7.367  0.610E+00  0.414E+00
   7.387  0.609E+00  0.412E+00
   7.407  0.607E+00  0.410E+00
   7.427  0.606E+00  0.407E+00
   7.447  0.605E+00  0.405E+00
   7.467  0.603E+00  0.402E+00
   7.487  0.602E+00  0.400E+00
   7.507  0.600E+00  0.397E+00
   7.527  0.599E+00  0.394E+00
   7.547  0.597E+00  0.391E+00
   7.567  0.596E+00  0.389E+00
   7.587  0.594E+00  0.386E+00
   7.607  0.592E+00  0.383E+00
   7.627  0.591E+00  0.380E+00
   7.647  0.589E+00  0.377E+00
   7.667  0.588E+00  0.374E+00
   7.687  0.586E+00  0.371E+00
   7.707  0.584E+00  0.369E+00
   7.727  0.583E+00  0.366E+00
   7.747  0.581E+00  0.363E+00
   7.767  0.580E+00  0.360E+00
   7.787  0.578E+00  0.357E+00
   7.807  0.577E+00  0.355E+00
   7.827  0.575E+00  0.352E+00
   7.847  0.573E+00  0.349E+00
   7.867  0.572E+00  0.347E+00
   7.887  0.570E+00  0.344E+00
   7.907  0.569E+00  0.341E+00
   7.927  0.567E+00  0.339E+00
   7.947  0.565E+00  0.336E+00
   7.967  0.564E+00  0.333E+00
   7.987  0.562E+00  0.331E+00
   8.007  0.560E+00  0.328E+00
   8.027  0.558E+00  0.325E+00
   8.047  0.557E+00  0.323E+00
   8.067  0.555E+00  0.320E+00
   8.087  0.553E+00  0.318E+00
   8.107  0.551E+00  0.315E+00
   8.127  0.549E+00  0.313E+00
   8.147  0.548E+00  0.310E+00
   8.167  0.546E+00  0.308E+00
   8.187  0.544E+00  0.305E+00
