# E (eV)  dos(E)    pdos(E)
  -4.265  0.745E-06  0.739E-06
  -4.245  0.101E-05  0.101E-05
  -4.225  0.137E-05  0.136E-05
  -4.205  0.185E-05  0.184E-05
  -4.185  0.249E-05  0.247E-05
  -4.165  0.332E-05  0.330E-05
  -4.145  0.442E-05  0.439E-05
  -4.125  0.586E-05  0.582E-05
  -4.105  0.773E-05  0.767E-05
  -4.085  0.102E-04  0.101E-04
  -4.065  0.133E-04  0.132E-04
  -4.045  0.173E-04  0.171E-04
  -4.025  0.224E-04  0.222E-04
  -4.005  0.289E-04  0.287E-04
  -3.985  0.371E-04  0.368E-04
  -3.965  0.475E-04  0.471E-04
  -3.945  0.604E-04  0.600E-04
  -3.925  0.766E-04  0.760E-04
  -3.905  0.967E-04  0.960E-04
  -3.885  0.122E-03  0.121E-03
  -3.865  0.152E-03  0.151E-03
  -3.845  0.190E-03  0.188E-03
  -3.825  0.235E-03  0.233E-03
  -3.805  0.291E-03  0.288E-03
  -3.785  0.358E-03  0.355E-03
  -3.765  0.438E-03  0.435E-03
  -3.745  0.535E-03  0.531E-03
  -3.725  0.650E-03  0.645E-03
  -3.705  0.786E-03  0.780E-03
  -3.685  0.947E-03  0.940E-03
  -3.665  0.114E-02  0.113E-02
  -3.645  0.136E-02  0.135E-02
  -3.625  0.162E-02  0.160E-02
  -3.605  0.192E-02  0.190E-02
  -3.585  0.226E-02  0.224E-02
  -3.565  0.266E-02  0.264E-02
  -3.545  0.311E-02  0.309E-02
  -3.525  0.363E-02  0.360E-02
  -3.505  0.422E-02  0.419E-02
  -3.485  0.489E-02  0.485E-02
  -3.465  0.563E-02  0.559E-02
  -3.445  0.647E-02  0.642E-02
  -3.425  0.740E-02  0.735E-02
  -3.405  0.844E-02  0.837E-02
  -3.385  0.958E-02  0.951E-02
  -3.365  0.108E-01  0.108E-01
  -3.345  0.122E-01  0.121E-01
  -3.325  0.137E-01  0.136E-01
  -3.305  0.154E-01  0.153E-01
  -3.285  0.171E-01  0.170E-01
  -3.265  0.191E-01  0.189E-01
  -3.245  0.211E-01  0.210E-01
  -3.225  0.233E-01  0.231E-01
  -3.205  0.257E-01  0.255E-01
  -3.185  0.281E-01  0.279E-01
  -3.165  0.308E-01  0.305E-01
  -3.145  0.335E-01  0.333E-01
  -3.125  0.364E-01  0.361E-01
  -3.105  0.394E-01  0.391E-01
  -3.085  0.426E-01  0.423E-01
  -3.065  0.459E-01  0.455E-01
  -3.045  0.492E-01  0.489E-01
  -3.025  0.527E-01  0.523E-01
  -3.005  0.563E-01  0.559E-01
  -2.985  0.599E-01  0.595E-01
  -2.965  0.637E-01  0.632E-01
  -2.945  0.675E-01  0.670E-01
  -2.925  0.713E-01  0.708E-01
  -2.905  0.752E-01  0.746E-01
  -2.885  0.791E-01  0.785E-01
  -2.865  0.830E-01  0.824E-01
  -2.845  0.870E-01  0.864E-01
  -2.825  0.909E-01  0.903E-01
  -2.805  0.949E-01  0.942E-01
  -2.785  0.988E-01  0.981E-01
  -2.765  0.103E+00  0.102E+00
  -2.745  0.107E+00  0.106E+00
  -2.725  0.110E+00  0.110E+00
  -2.705  0.114E+00  0.113E+00
  -2.685  0.118E+00  0.117E+00
  -2.665  0.122E+00  0.121E+00
  -2.645  0.125E+00  0.124E+00
  -2.625  0.129E+00  0.128E+00
  -2.605  0.132E+00  0.131E+00
  -2.585  0.136E+00  0.135E+00
  -2.565  0.139E+00  0.138E+00
  -2.545  0.142E+00  0.141E+00
  -2.525  0.145E+00  0.144E+00
  -2.505  0.149E+00  0.148E+00
  -2.485  0.152E+00  0.151E+00
  -2.465  0.155E+00  0.154E+00
  -2.445  0.158E+00  0.157E+00
  -2.425  0.161E+00  0.160E+00
  -2.405  0.164E+00  0.162E+00
  -2.385  0.166E+00  0.165E+00
  -2.365  0.169E+00  0.168E+00
  -2.345  0.172E+00  0.171E+00
  -2.325  0.174E+00  0.173E+00
  -2.305  0.177E+00  0.176E+00
  -2.285  0.180E+00  0.178E+00
  -2.265  0.182E+00  0.181E+00
  -2.245  0.185E+00  0.183E+00
  -2.225  0.187E+00  0.186E+00
  -2.205  0.189E+00  0.188E+00
  -2.185  0.192E+00  0.190E+00
  -2.165  0.194E+00  0.193E+00
  -2.145  0.196E+00  0.195E+00
  -2.125  0.199E+00  0.197E+00
  -2.105  0.201E+00  0.199E+00
  -2.085  0.203E+00  0.202E+00
  -2.065  0.205E+00  0.204E+00
  -2.045  0.208E+00  0.206E+00
  -2.025  0.210E+00  0.208E+00
  -2.005  0.212E+00  0.210E+00
  -1.985  0.214E+00  0.212E+00
  -1.965  0.216E+00  0.214E+00
  -1.945  0.218E+00  0.216E+00
  -1.925  0.220E+00  0.218E+00
  -1.905  0.222E+00  0.220E+00
  -1.885  0.224E+00  0.222E+00
  -1.865  0.226E+00  0.224E+00
  -1.845  0.228E+00  0.226E+00
  -1.825  0.230E+00  0.228E+00
  -1.805  0.232E+00  0.230E+00
  -1.785  0.234E+00  0.232E+00
  -1.765  0.236E+00  0.234E+00
  -1.745  0.238E+00  0.235E+00
  -1.725  0.240E+00  0.237E+00
  -1.705  0.241E+00  0.239E+00
  -1.685  0.243E+00  0.241E+00
  -1.665  0.245E+00  0.243E+00
  -1.645  0.247E+00  0.244E+00
  -1.625  0.249E+00  0.246E+00
  -1.605  0.251E+00  0.248E+00
  -1.585  0.252E+00  0.250E+00
  -1.565  0.254E+00  0.251E+00
  -1.545  0.256E+00  0.253E+00
  -1.525  0.258E+00  0.255E+00
  -1.505  0.259E+00  0.256E+00
  -1.485  0.261E+00  0.258E+00
  -1.465  0.263E+00  0.260E+00
  -1.445  0.265E+00  0.261E+00
  -1.425  0.266E+00  0.263E+00
  -1.405  0.268E+00  0.265E+00
  -1.385  0.270E+00  0.266E+00
  -1.365  0.272E+00  0.268E+00
  -1.345  0.273E+00  0.270E+00
  -1.325  0.275E+00  0.271E+00
  -1.305  0.277E+00  0.273E+00
  -1.285  0.278E+00  0.275E+00
  -1.265  0.280E+00  0.276E+00
  -1.245  0.282E+00  0.278E+00
  -1.225  0.283E+00  0.280E+00
  -1.205  0.285E+00  0.281E+00
  -1.185  0.287E+00  0.283E+00
  -1.165  0.288E+00  0.284E+00
  -1.145  0.290E+00  0.286E+00
  -1.125  0.292E+00  0.287E+00
  -1.105  0.293E+00  0.289E+00
  -1.085  0.295E+00  0.291E+00
  -1.065  0.297E+00  0.292E+00
  -1.045  0.298E+00  0.294E+00
  -1.025  0.300E+00  0.295E+00
  -1.005  0.301E+00  0.297E+00
  -0.985  0.303E+00  0.298E+00
  -0.965  0.305E+00  0.300E+00
  -0.945  0.306E+00  0.301E+00
  -0.925  0.308E+00  0.303E+00
  -0.905  0.309E+00  0.304E+00
  -0.885  0.311E+00  0.306E+00
  -0.865  0.313E+00  0.307E+00
  -0.845  0.314E+00  0.309E+00
  -0.825  0.316E+00  0.311E+00
  -0.805  0.318E+00  0.312E+00
  -0.785  0.319E+00  0.314E+00
  -0.765  0.321E+00  0.315E+00
  -0.745  0.323E+00  0.317E+00
  -0.725  0.325E+00  0.319E+00
  -0.705  0.326E+00  0.320E+00
  -0.685  0.328E+00  0.322E+00
  -0.665  0.330E+00  0.323E+00
  -0.645  0.331E+00  0.325E+00
  -0.625  0.333E+00  0.326E+00
  -0.605  0.334E+00  0.328E+00
  -0.585  0.336E+00  0.330E+00
  -0.565  0.338E+00  0.331E+00
  -0.545  0.339E+00  0.333E+00
  -0.525  0.341E+00  0.334E+00
  -0.505  0.343E+00  0.335E+00
  -0.485  0.344E+00  0.337E+00
  -0.465  0.346E+00  0.338E+00
  -0.445  0.347E+00  0.340E+00
  -0.425  0.349E+00  0.341E+00
  -0.405  0.351E+00  0.343E+00
  -0.385  0.352E+00  0.344E+00
  -0.365  0.354E+00  0.346E+00
  -0.345  0.356E+00  0.348E+00
  -0.325  0.358E+00  0.349E+00
  -0.305  0.359E+00  0.351E+00
  -0.285  0.361E+00  0.352E+00
  -0.265  0.363E+00  0.354E+00
  -0.245  0.365E+00  0.356E+00
  -0.225  0.367E+00  0.358E+00
  -0.205  0.369E+00  0.360E+00
  -0.185  0.371E+00  0.361E+00
  -0.165  0.373E+00  0.363E+00
  -0.145  0.375E+00  0.365E+00
  -0.125  0.378E+00  0.367E+00
  -0.105  0.380E+00  0.369E+00
  -0.085  0.382E+00  0.371E+00
  -0.065  0.384E+00  0.372E+00
  -0.045  0.386E+00  0.374E+00
  -0.025  0.388E+00  0.376E+00
  -0.005  0.390E+00  0.378E+00
   0.015  0.393E+00  0.379E+00
   0.035  0.395E+00  0.381E+00
   0.055  0.397E+00  0.383E+00
   0.075  0.399E+00  0.385E+00
   0.095  0.401E+00  0.386E+00
   0.115  0.404E+00  0.388E+00
   0.135  0.406E+00  0.390E+00
   0.155  0.408E+00  0.392E+00
   0.175  0.411E+00  0.393E+00
   0.195  0.413E+00  0.395E+00
   0.215  0.416E+00  0.397E+00
   0.235  0.418E+00  0.399E+00
   0.255  0.421E+00  0.401E+00
   0.275  0.424E+00  0.404E+00
   0.295  0.427E+00  0.406E+00
   0.315  0.431E+00  0.408E+00
   0.335  0.434E+00  0.411E+00
   0.355  0.438E+00  0.413E+00
   0.375  0.441E+00  0.416E+00
   0.395  0.445E+00  0.419E+00
   0.415  0.449E+00  0.422E+00
   0.435  0.453E+00  0.425E+00
   0.455  0.457E+00  0.428E+00
   0.475  0.461E+00  0.431E+00
   0.495  0.465E+00  0.434E+00
   0.515  0.469E+00  0.437E+00
   0.535  0.473E+00  0.440E+00
   0.555  0.477E+00  0.443E+00
   0.575  0.481E+00  0.445E+00
   0.595  0.484E+00  0.448E+00
   0.615  0.488E+00  0.451E+00
   0.635  0.491E+00  0.453E+00
   0.655  0.494E+00  0.455E+00
   0.675  0.498E+00  0.458E+00
   0.695  0.500E+00  0.460E+00
   0.715  0.503E+00  0.461E+00
   0.735  0.505E+00  0.463E+00
   0.755  0.507E+00  0.465E+00
   0.775  0.509E+00  0.466E+00
   0.795  0.511E+00  0.467E+00
   0.815  0.513E+00  0.468E+00
   0.835  0.514E+00  0.469E+00
   0.855  0.515E+00  0.470E+00
   0.875  0.516E+00  0.470E+00
   0.895  0.516E+00  0.471E+00
   0.915  0.517E+00  0.471E+00
   0.935  0.517E+00  0.471E+00
   0.955  0.517E+00  0.471E+00
   0.975  0.517E+00  0.471E+00
   0.995  0.517E+00  0.471E+00
   1.015  0.517E+00  0.471E+00
   1.035  0.516E+00  0.470E+00
   1.055  0.515E+00  0.470E+00
   1.075  0.515E+00  0.469E+00
   1.095  0.513E+00  0.468E+00
   1.115  0.512E+00  0.467E+00
   1.135  0.511E+00  0.466E+00
   1.155  0.509E+00  0.465E+00
   1.175  0.507E+00  0.463E+00
   1.195  0.505E+00  0.461E+00
   1.215  0.502E+00  0.459E+00
   1.235  0.499E+00  0.457E+00
   1.255  0.496E+00  0.454E+00
   1.275  0.493E+00  0.451E+00
   1.295  0.489E+00  0.448E+00
   1.315  0.486E+00  0.444E+00
   1.335  0.482E+00  0.441E+00
   1.355  0.477E+00  0.437E+00
   1.375  0.473E+00  0.432E+00
   1.395  0.468E+00  0.428E+00
   1.415  0.463E+00  0.423E+00
   1.435  0.458E+00  0.419E+00
   1.455  0.453E+00  0.414E+00
   1.475  0.448E+00  0.409E+00
   1.495  0.443E+00  0.404E+00
   1.515  0.438E+00  0.399E+00
   1.535  0.433E+00  0.394E+00
   1.555  0.428E+00  0.390E+00
   1.575  0.424E+00  0.385E+00
   1.595  0.419E+00  0.380E+00
   1.615  0.415E+00  0.376E+00
   1.635  0.410E+00  0.371E+00
   1.655  0.406E+00  0.367E+00
   1.675  0.402E+00  0.363E+00
   1.695  0.398E+00  0.359E+00
   1.715  0.395E+00  0.355E+00
   1.735  0.391E+00  0.351E+00
   1.755  0.388E+00  0.347E+00
   1.775  0.384E+00  0.344E+00
   1.795  0.381E+00  0.340E+00
   1.815  0.378E+00  0.336E+00
   1.835  0.374E+00  0.333E+00
   1.855  0.371E+00  0.329E+00
   1.875  0.368E+00  0.325E+00
   1.895  0.364E+00  0.322E+00
   1.915  0.360E+00  0.318E+00
   1.935  0.356E+00  0.313E+00
   1.955  0.352E+00  0.309E+00
   1.975  0.348E+00  0.305E+00
   1.995  0.344E+00  0.300E+00
   2.015  0.339E+00  0.295E+00
   2.035  0.335E+00  0.290E+00
   2.055  0.330E+00  0.285E+00
   2.075  0.325E+00  0.280E+00
   2.095  0.319E+00  0.274E+00
   2.115  0.314E+00  0.269E+00
   2.135  0.309E+00  0.263E+00
   2.155  0.303E+00  0.258E+00
   2.175  0.298E+00  0.252E+00
   2.195  0.292E+00  0.246E+00
   2.215  0.287E+00  0.241E+00
   2.235  0.282E+00  0.235E+00
   2.255  0.277E+00  0.230E+00
   2.275  0.272E+00  0.224E+00
   2.295  0.267E+00  0.219E+00
   2.315  0.263E+00  0.214E+00
   2.335  0.258E+00  0.210E+00
   2.355  0.254E+00  0.205E+00
   2.375  0.250E+00  0.201E+00
   2.395  0.247E+00  0.196E+00
   2.415  0.243E+00  0.192E+00
   2.435  0.240E+00  0.188E+00
   2.455  0.236E+00  0.185E+00
   2.475  0.233E+00  0.181E+00
   2.495  0.230E+00  0.178E+00
   2.515  0.227E+00  0.174E+00
   2.535  0.224E+00  0.171E+00
   2.555  0.221E+00  0.168E+00
   2.575  0.218E+00  0.164E+00
   2.595  0.215E+00  0.161E+00
   2.615  0.212E+00  0.158E+00
   2.635  0.208E+00  0.154E+00
   2.655  0.205E+00  0.151E+00
   2.675  0.201E+00  0.147E+00
   2.695  0.198E+00  0.143E+00
   2.715  0.194E+00  0.140E+00
   2.735  0.190E+00  0.136E+00
   2.755  0.186E+00  0.132E+00
   2.775  0.182E+00  0.128E+00
   2.795  0.178E+00  0.124E+00
   2.815  0.174E+00  0.121E+00
   2.835  0.170E+00  0.117E+00
   2.855  0.166E+00  0.113E+00
   2.875  0.162E+00  0.109E+00
   2.895  0.159E+00  0.106E+00
   2.915  0.155E+00  0.102E+00
   2.935  0.152E+00  0.992E-01
   2.955  0.149E+00  0.962E-01
   2.975  0.147E+00  0.935E-01
   2.995  0.145E+00  0.910E-01
   3.015  0.143E+00  0.888E-01
   3.035  0.142E+00  0.869E-01
   3.055  0.141E+00  0.853E-01
   3.075  0.140E+00  0.840E-01
   3.095  0.140E+00  0.831E-01
   3.115  0.140E+00  0.825E-01
   3.135  0.141E+00  0.822E-01
   3.155  0.142E+00  0.823E-01
   3.175  0.144E+00  0.828E-01
   3.195  0.146E+00  0.836E-01
   3.215  0.149E+00  0.848E-01
   3.235  0.151E+00  0.863E-01
   3.255  0.155E+00  0.881E-01
   3.275  0.158E+00  0.903E-01
   3.295  0.162E+00  0.929E-01
   3.315  0.166E+00  0.958E-01
   3.335  0.171E+00  0.991E-01
   3.355  0.176E+00  0.103E+00
   3.375  0.182E+00  0.107E+00
   3.395  0.188E+00  0.111E+00
   3.415  0.194E+00  0.116E+00
   3.435  0.201E+00  0.122E+00
   3.455  0.208E+00  0.127E+00
   3.475  0.216E+00  0.134E+00
   3.495  0.224E+00  0.141E+00
   3.515  0.233E+00  0.148E+00
   3.535  0.242E+00  0.156E+00
   3.555  0.252E+00  0.164E+00
   3.575  0.263E+00  0.173E+00
   3.595  0.274E+00  0.182E+00
   3.615  0.286E+00  0.192E+00
   3.635  0.298E+00  0.202E+00
   3.655  0.311E+00  0.213E+00
   3.675  0.325E+00  0.224E+00
   3.695  0.338E+00  0.236E+00
   3.715  0.353E+00  0.248E+00
   3.735  0.367E+00  0.260E+00
   3.755  0.382E+00  0.273E+00
   3.775  0.397E+00  0.285E+00
   3.795  0.412E+00  0.298E+00
   3.815  0.427E+00  0.310E+00
   3.835  0.443E+00  0.323E+00
   3.855  0.457E+00  0.335E+00
   3.875  0.472E+00  0.347E+00
   3.895  0.486E+00  0.359E+00
   3.915  0.500E+00  0.370E+00
   3.935  0.513E+00  0.381E+00
   3.955  0.525E+00  0.391E+00
   3.975  0.537E+00  0.401E+00
   3.995  0.548E+00  0.410E+00
   4.015  0.558E+00  0.418E+00
   4.035  0.567E+00  0.425E+00
   4.055  0.575E+00  0.432E+00
   4.075  0.582E+00  0.438E+00
   4.095  0.588E+00  0.443E+00
   4.115  0.594E+00  0.447E+00
   4.135  0.598E+00  0.450E+00
   4.155  0.601E+00  0.453E+00
   4.175  0.604E+00  0.455E+00
   4.195  0.606E+00  0.456E+00
   4.215  0.606E+00  0.456E+00
   4.235  0.607E+00  0.456E+00
   4.255  0.606E+00  0.456E+00
   4.275  0.605E+00  0.454E+00
   4.295  0.603E+00  0.453E+00
   4.315  0.601E+00  0.451E+00
   4.335  0.599E+00  0.448E+00
   4.355  0.596E+00  0.446E+00
   4.375  0.593E+00  0.443E+00
   4.395  0.589E+00  0.440E+00
   4.415  0.586E+00  0.437E+00
   4.435  0.582E+00  0.433E+00
   4.455  0.578E+00  0.430E+00
   4.475  0.574E+00  0.427E+00
   4.495  0.570E+00  0.423E+00
   4.515  0.566E+00  0.420E+00
   4.535  0.562E+00  0.416E+00
   4.555  0.558E+00  0.413E+00
   4.575  0.554E+00  0.409E+00
   4.595  0.550E+00  0.406E+00
   4.615  0.546E+00  0.402E+00
   4.635  0.542E+00  0.399E+00
   4.655  0.538E+00  0.396E+00
   4.675  0.534E+00  0.392E+00
   4.695  0.529E+00  0.389E+00
   4.715  0.525E+00  0.386E+00
   4.735  0.521E+00  0.383E+00
   4.755  0.517E+00  0.380E+00
   4.775  0.513E+00  0.376E+00
   4.795  0.508E+00  0.373E+00
   4.815  0.504E+00  0.370E+00
   4.835  0.500E+00  0.367E+00
   4.855  0.496E+00  0.364E+00
   4.875  0.492E+00  0.361E+00
   4.895  0.488E+00  0.358E+00
   4.915  0.484E+00  0.355E+00
   4.935  0.480E+00  0.353E+00
   4.955  0.476E+00  0.350E+00
   4.975  0.473E+00  0.348E+00
   4.995  0.469E+00  0.346E+00
   5.015  0.466E+00  0.344E+00
   5.035  0.463E+00  0.342E+00
   5.055  0.461E+00  0.340E+00
   5.075  0.458E+00  0.339E+00
   5.095  0.456E+00  0.337E+00
   5.115  0.454E+00  0.336E+00
   5.135  0.452E+00  0.335E+00
   5.155  0.450E+00  0.334E+00
   5.175  0.448E+00  0.333E+00
   5.195  0.447E+00  0.332E+00
   5.215  0.445E+00  0.331E+00
   5.235  0.444E+00  0.330E+00
   5.255  0.443E+00  0.330E+00
   5.275  0.441E+00  0.329E+00
   5.295  0.440E+00  0.328E+00
   5.315  0.439E+00  0.327E+00
   5.335  0.437E+00  0.326E+00
   5.355  0.435E+00  0.325E+00
   5.375  0.434E+00  0.324E+00
   5.395  0.432E+00  0.323E+00
   5.415  0.430E+00  0.322E+00
   5.435  0.428E+00  0.320E+00
   5.455  0.425E+00  0.319E+00
   5.475  0.423E+00  0.317E+00
   5.495  0.421E+00  0.315E+00
   5.515  0.418E+00  0.314E+00
   5.535  0.416E+00  0.312E+00
   5.555  0.413E+00  0.310E+00
   5.575  0.411E+00  0.308E+00
   5.595  0.409E+00  0.307E+00
   5.615  0.406E+00  0.305E+00
   5.635  0.404E+00  0.303E+00
   5.655  0.402E+00  0.302E+00
   5.675  0.400E+00  0.300E+00
   5.695  0.399E+00  0.299E+00
   5.715  0.397E+00  0.297E+00
   5.735  0.396E+00  0.296E+00
   5.755  0.394E+00  0.295E+00
   5.775  0.394E+00  0.294E+00
   5.795  0.393E+00  0.294E+00
   5.815  0.392E+00  0.293E+00
   5.835  0.392E+00  0.293E+00
   5.855  0.392E+00  0.292E+00
   5.875  0.392E+00  0.292E+00
   5.895  0.393E+00  0.292E+00
   5.915  0.393E+00  0.292E+00
   5.935  0.394E+00  0.293E+00
   5.955  0.395E+00  0.293E+00
   5.975  0.397E+00  0.294E+00
   5.995  0.398E+00  0.294E+00
   6.015  0.400E+00  0.295E+00
   6.035  0.402E+00  0.296E+00
   6.055  0.404E+00  0.298E+00
   6.075  0.406E+00  0.299E+00
   6.095  0.409E+00  0.301E+00
   6.115  0.412E+00  0.302E+00
   6.135  0.415E+00  0.304E+00
   6.155  0.418E+00  0.307E+00
   6.175  0.422E+00  0.309E+00
   6.195  0.425E+00  0.311E+00
   6.215  0.429E+00  0.314E+00
   6.235  0.433E+00  0.317E+00
   6.255  0.438E+00  0.320E+00
   6.275  0.442E+00  0.323E+00
   6.295  0.447E+00  0.326E+00
   6.315  0.452E+00  0.330E+00
   6.335  0.457E+00  0.333E+00
   6.355  0.462E+00  0.337E+00
   6.375  0.467E+00  0.341E+00
   6.395  0.472E+00  0.344E+00
   6.415  0.477E+00  0.348E+00
   6.435  0.482E+00  0.352E+00
   6.455  0.487E+00  0.356E+00
   6.475  0.492E+00  0.359E+00
   6.495  0.496E+00  0.363E+00
   6.515  0.501E+00  0.367E+00
   6.535  0.506E+00  0.370E+00
   6.555  0.511E+00  0.374E+00
   6.575  0.515E+00  0.377E+00
   6.595  0.520E+00  0.381E+00
   6.615  0.524E+00  0.384E+00
   6.635  0.529E+00  0.388E+00
   6.655  0.533E+00  0.391E+00
   6.675  0.538E+00  0.395E+00
   6.695  0.542E+00  0.398E+00
   6.715  0.547E+00  0.401E+00
   6.735  0.552E+00  0.404E+00
   6.755  0.556E+00  0.408E+00
   6.775  0.561E+00  0.411E+00
   6.795  0.566E+00  0.414E+00
   6.815  0.571E+00  0.418E+00
   6.835  0.576E+00  0.421E+00
   6.855  0.581E+00  0.424E+00
   6.875  0.586E+00  0.427E+00
   6.895  0.591E+00  0.430E+00
   6.915  0.596E+00  0.433E+00
   6.935  0.601E+00  0.436E+00
   6.955  0.606E+00  0.439E+00
   6.975  0.610E+00  0.441E+00
   6.995  0.615E+00  0.444E+00
   7.015  0.619E+00  0.446E+00
   7.035  0.623E+00  0.447E+00
   7.055  0.626E+00  0.449E+00
   7.075  0.629E+00  0.450E+00
   7.095  0.632E+00  0.451E+00
   7.115  0.634E+00  0.451E+00
   7.135  0.636E+00  0.451E+00
   7.155  0.637E+00  0.451E+00
   7.175  0.638E+00  0.450E+00
   7.195  0.638E+00  0.449E+00
   7.215  0.637E+00  0.447E+00
   7.235  0.637E+00  0.445E+00
   7.255  0.635E+00  0.443E+00
   7.275  0.633E+00  0.440E+00
   7.295  0.631E+00  0.437E+00
   7.315  0.629E+00  0.434E+00
   7.335  0.626E+00  0.431E+00
   7.355  0.623E+00  0.427E+00
   7.375  0.619E+00  0.423E+00
   7.395  0.616E+00  0.419E+00
   7.415  0.612E+00  0.415E+00
   7.435  0.609E+00  0.411E+00
   7.455  0.605E+00  0.407E+00
   7.475  0.602E+00  0.403E+00
   7.495  0.599E+00  0.399E+00
   7.515  0.596E+00  0.395E+00
   7.535  0.593E+00  0.391E+00
   7.555  0.590E+00  0.387E+00
   7.575  0.588E+00  0.384E+00
   7.595  0.586E+00  0.380E+00
   7.615  0.584E+00  0.377E+00
   7.635  0.582E+00  0.374E+00
   7.655  0.581E+00  0.371E+00
   7.675  0.580E+00  0.368E+00
   7.695  0.579E+00  0.366E+00
   7.715  0.578E+00  0.363E+00
   7.735  0.578E+00  0.361E+00
   7.755  0.578E+00  0.358E+00
   7.775  0.577E+00  0.356E+00
   7.795  0.577E+00  0.354E+00
   7.815  0.577E+00  0.352E+00
   7.835  0.577E+00  0.350E+00
   7.855  0.576E+00  0.348E+00
   7.875  0.576E+00  0.346E+00
   7.895  0.575E+00  0.343E+00
   7.915  0.574E+00  0.341E+00
   7.935  0.573E+00  0.339E+00
   7.955  0.572E+00  0.337E+00
   7.975  0.571E+00  0.334E+00
   7.995  0.569E+00  0.331E+00
   8.015  0.567E+00  0.329E+00
   8.035  0.565E+00  0.326E+00
   8.055  0.563E+00  0.323E+00
   8.075  0.560E+00  0.320E+00
   8.095  0.558E+00  0.317E+00
   8.115  0.555E+00  0.314E+00
   8.135  0.552E+00  0.311E+00
   8.155  0.548E+00  0.308E+00
   8.175  0.545E+00  0.305E+00
   8.195  0.542E+00  0.302E+00
   8.215  0.539E+00  0.298E+00
   8.235  0.535E+00  0.295E+00
   8.255  0.532E+00  0.292E+00
   8.275  0.529E+00  0.289E+00
   8.295  0.526E+00  0.286E+00
   8.315  0.524E+00  0.284E+00
   8.335  0.521E+00  0.281E+00
   8.355  0.519E+00  0.279E+00
   8.375  0.517E+00  0.276E+00
   8.395  0.515E+00  0.274E+00
   8.415  0.514E+00  0.272E+00
   8.435  0.513E+00  0.270E+00
   8.455  0.512E+00  0.269E+00
   8.475  0.512E+00  0.267E+00
   8.495  0.511E+00  0.266E+00
   8.515  0.511E+00  0.265E+00
   8.535  0.511E+00  0.265E+00
   8.555  0.512E+00  0.264E+00
   8.575  0.512E+00  0.263E+00
   8.595  0.513E+00  0.263E+00
