# E (eV)  dos(E)    pdos(E)
  -4.222  0.144E-05  0.143E-05
  -4.202  0.194E-05  0.193E-05
  -4.182  0.260E-05  0.258E-05
  -4.162  0.348E-05  0.345E-05
  -4.142  0.463E-05  0.459E-05
  -4.122  0.613E-05  0.608E-05
  -4.102  0.808E-05  0.801E-05
  -4.082  0.106E-04  0.105E-04
  -4.062  0.138E-04  0.137E-04
  -4.042  0.180E-04  0.179E-04
  -4.022  0.233E-04  0.231E-04
  -4.002  0.301E-04  0.298E-04
  -3.982  0.386E-04  0.383E-04
  -3.962  0.493E-04  0.489E-04
  -3.942  0.628E-04  0.623E-04
  -3.922  0.795E-04  0.789E-04
  -3.902  0.100E-03  0.995E-04
  -3.882  0.126E-03  0.125E-03
  -3.862  0.158E-03  0.156E-03
  -3.842  0.196E-03  0.195E-03
  -3.822  0.243E-03  0.241E-03
  -3.802  0.300E-03  0.298E-03
  -3.782  0.369E-03  0.366E-03
  -3.762  0.452E-03  0.449E-03
  -3.742  0.551E-03  0.547E-03
  -3.722  0.669E-03  0.664E-03
  -3.702  0.809E-03  0.803E-03
  -3.682  0.974E-03  0.966E-03
  -3.662  0.117E-02  0.116E-02
  -3.642  0.139E-02  0.138E-02
  -3.622  0.166E-02  0.165E-02
  -3.602  0.196E-02  0.195E-02
  -3.582  0.232E-02  0.230E-02
  -3.562  0.272E-02  0.270E-02
  -3.542  0.319E-02  0.316E-02
  -3.522  0.372E-02  0.369E-02
  -3.502  0.432E-02  0.428E-02
  -3.482  0.499E-02  0.496E-02
  -3.462  0.576E-02  0.571E-02
  -3.442  0.661E-02  0.656E-02
  -3.422  0.756E-02  0.750E-02
  -3.402  0.861E-02  0.855E-02
  -3.382  0.977E-02  0.970E-02
  -3.362  0.111E-01  0.110E-01
  -3.342  0.125E-01  0.124E-01
  -3.322  0.140E-01  0.139E-01
  -3.302  0.156E-01  0.155E-01
  -3.282  0.174E-01  0.173E-01
  -3.262  0.194E-01  0.192E-01
  -3.242  0.215E-01  0.213E-01
  -3.222  0.237E-01  0.235E-01
  -3.202  0.260E-01  0.258E-01
  -3.182  0.285E-01  0.283E-01
  -3.162  0.312E-01  0.310E-01
  -3.142  0.340E-01  0.337E-01
  -3.122  0.369E-01  0.366E-01
  -3.102  0.399E-01  0.396E-01
  -3.082  0.431E-01  0.428E-01
  -3.062  0.464E-01  0.460E-01
  -3.042  0.497E-01  0.494E-01
  -3.022  0.532E-01  0.528E-01
  -3.002  0.568E-01  0.564E-01
  -2.982  0.605E-01  0.600E-01
  -2.962  0.642E-01  0.637E-01
  -2.942  0.680E-01  0.675E-01
  -2.922  0.718E-01  0.713E-01
  -2.902  0.757E-01  0.752E-01
  -2.882  0.796E-01  0.790E-01
  -2.862  0.836E-01  0.830E-01
  -2.842  0.875E-01  0.869E-01
  -2.822  0.915E-01  0.908E-01
  -2.802  0.954E-01  0.948E-01
  -2.782  0.994E-01  0.987E-01
  -2.762  0.103E+00  0.103E+00
  -2.742  0.107E+00  0.106E+00
  -2.722  0.111E+00  0.110E+00
  -2.702  0.115E+00  0.114E+00
  -2.682  0.119E+00  0.118E+00
  -2.662  0.122E+00  0.121E+00
  -2.642  0.126E+00  0.125E+00
  -2.622  0.130E+00  0.129E+00
  -2.602  0.133E+00  0.132E+00
  -2.582  0.137E+00  0.136E+00
  -2.562  0.140E+00  0.139E+00
  -2.542  0.143E+00  0.142E+00
  -2.522  0.146E+00  0.145E+00
  -2.502  0.149E+00  0.148E+00
  -2.482  0.152E+00  0.151E+00
  -2.462  0.155E+00  0.154E+00
  -2.442  0.158E+00  0.157E+00
  -2.422  0.161E+00  0.160E+00
  -2.402  0.164E+00  0.163E+00
  -2.382  0.166E+00  0.165E+00
  -2.362  0.169E+00  0.168E+00
  -2.342  0.171E+00  0.170E+00
  -2.322  0.174E+00  0.173E+00
  -2.302  0.176E+00  0.175E+00
  -2.282  0.179E+00  0.178E+00
  -2.262  0.181E+00  0.180E+00
  -2.242  0.184E+00  0.182E+00
  -2.222  0.186E+00  0.185E+00
  -2.202  0.189E+00  0.187E+00
  -2.182  0.191E+00  0.190E+00
  -2.162  0.194E+00  0.192E+00
  -2.142  0.196E+00  0.195E+00
  -2.122  0.199E+00  0.197E+00
  -2.102  0.201E+00  0.200E+00
  -2.082  0.204E+00  0.202E+00
  -2.062  0.206E+00  0.205E+00
  -2.042  0.209E+00  0.207E+00
  -2.022  0.211E+00  0.210E+00
  -2.002  0.214E+00  0.212E+00
  -1.982  0.216E+00  0.215E+00
  -1.962  0.219E+00  0.217E+00
  -1.942  0.221E+00  0.219E+00
  -1.922  0.223E+00  0.221E+00
  -1.902  0.225E+00  0.223E+00
  -1.882  0.227E+00  0.225E+00
  -1.862  0.229E+00  0.227E+00
  -1.842  0.231E+00  0.229E+00
  -1.822  0.233E+00  0.231E+00
  -1.802  0.234E+00  0.232E+00
  -1.782  0.236E+00  0.234E+00
  -1.762  0.237E+00  0.235E+00
  -1.742  0.238E+00  0.236E+00
  -1.722  0.240E+00  0.237E+00
  -1.702  0.241E+00  0.238E+00
  -1.682  0.242E+00  0.239E+00
  -1.662  0.243E+00  0.241E+00
  -1.642  0.244E+00  0.242E+00
  -1.622  0.245E+00  0.243E+00
  -1.602  0.246E+00  0.244E+00
  -1.582  0.248E+00  0.245E+00
  -1.562  0.249E+00  0.246E+00
  -1.542  0.250E+00  0.248E+00
  -1.522  0.252E+00  0.249E+00
  -1.502  0.254E+00  0.251E+00
  -1.482  0.256E+00  0.253E+00
  -1.462  0.258E+00  0.255E+00
  -1.442  0.260E+00  0.257E+00
  -1.422  0.262E+00  0.259E+00
  -1.402  0.265E+00  0.262E+00
  -1.382  0.268E+00  0.264E+00
  -1.362  0.270E+00  0.267E+00
  -1.342  0.273E+00  0.270E+00
  -1.322  0.276E+00  0.272E+00
  -1.302  0.279E+00  0.275E+00
  -1.282  0.282E+00  0.278E+00
  -1.262  0.285E+00  0.281E+00
  -1.242  0.287E+00  0.283E+00
  -1.222  0.290E+00  0.286E+00
  -1.202  0.293E+00  0.288E+00
  -1.182  0.295E+00  0.291E+00
  -1.162  0.297E+00  0.293E+00
  -1.142  0.299E+00  0.295E+00
  -1.122  0.301E+00  0.297E+00
  -1.102  0.303E+00  0.298E+00
  -1.082  0.304E+00  0.300E+00
  -1.062  0.306E+00  0.301E+00
  -1.042  0.307E+00  0.302E+00
  -1.022  0.307E+00  0.303E+00
  -1.002  0.308E+00  0.303E+00
  -0.982  0.309E+00  0.304E+00
  -0.962  0.309E+00  0.304E+00
  -0.942  0.309E+00  0.304E+00
  -0.922  0.309E+00  0.304E+00
  -0.902  0.309E+00  0.304E+00
  -0.882  0.309E+00  0.304E+00
  -0.862  0.309E+00  0.304E+00
  -0.842  0.310E+00  0.304E+00
  -0.822  0.310E+00  0.304E+00
  -0.802  0.310E+00  0.304E+00
  -0.782  0.310E+00  0.305E+00
  -0.762  0.311E+00  0.305E+00
  -0.742  0.311E+00  0.306E+00
  -0.722  0.312E+00  0.306E+00
  -0.702  0.313E+00  0.307E+00
  -0.682  0.314E+00  0.309E+00
  -0.662  0.316E+00  0.310E+00
  -0.642  0.318E+00  0.312E+00
  -0.622  0.320E+00  0.314E+00
  -0.602  0.322E+00  0.316E+00
  -0.582  0.325E+00  0.319E+00
  -0.562  0.328E+00  0.321E+00
  -0.542  0.331E+00  0.324E+00
  -0.522  0.334E+00  0.327E+00
  -0.502  0.338E+00  0.331E+00
  -0.482  0.341E+00  0.334E+00
  -0.462  0.345E+00  0.338E+00
  -0.442  0.349E+00  0.341E+00
  -0.422  0.353E+00  0.345E+00
  -0.402  0.357E+00  0.349E+00
  -0.382  0.360E+00  0.352E+00
  -0.362  0.364E+00  0.356E+00
  -0.342  0.368E+00  0.359E+00
  -0.322  0.371E+00  0.362E+00
  -0.302  0.374E+00  0.365E+00
  -0.282  0.377E+00  0.368E+00
  -0.262  0.380E+00  0.371E+00
  -0.242  0.383E+00  0.373E+00
  -0.222  0.385E+00  0.375E+00
  -0.202  0.387E+00  0.377E+00
  -0.182  0.388E+00  0.378E+00
  -0.162  0.390E+00  0.379E+00
  -0.142  0.391E+00  0.380E+00
  -0.122  0.392E+00  0.381E+00
  -0.102  0.393E+00  0.381E+00
  -0.082  0.393E+00  0.381E+00
  -0.062  0.394E+00  0.381E+00
  -0.042  0.394E+00  0.381E+00
  -0.022  0.394E+00  0.381E+00
  -0.002  0.394E+00  0.381E+00
   0.018  0.394E+00  0.381E+00
   0.038  0.394E+00  0.381E+00
   0.058  0.395E+00  0.381E+00
   0.078  0.395E+00  0.380E+00
   0.098  0.395E+00  0.380E+00
   0.118  0.396E+00  0.380E+00
   0.138  0.397E+00  0.381E+00
   0.158  0.398E+00  0.381E+00
   0.178  0.399E+00  0.382E+00
   0.198  0.400E+00  0.382E+00
   0.218  0.401E+00  0.383E+00
   0.238  0.403E+00  0.384E+00
   0.258  0.405E+00  0.386E+00
   0.278  0.407E+00  0.387E+00
   0.298  0.410E+00  0.389E+00
   0.318  0.413E+00  0.391E+00
   0.338  0.416E+00  0.393E+00
   0.358  0.419E+00  0.396E+00
   0.378  0.423E+00  0.399E+00
   0.398  0.427E+00  0.402E+00
   0.418  0.432E+00  0.405E+00
   0.438  0.436E+00  0.409E+00
   0.458  0.441E+00  0.413E+00
   0.478  0.447E+00  0.418E+00
   0.498  0.453E+00  0.422E+00
   0.518  0.458E+00  0.427E+00
   0.538  0.465E+00  0.432E+00
   0.558  0.471E+00  0.438E+00
   0.578  0.478E+00  0.443E+00
   0.598  0.484E+00  0.448E+00
   0.618  0.491E+00  0.454E+00
   0.638  0.497E+00  0.460E+00
   0.658  0.504E+00  0.465E+00
   0.678  0.510E+00  0.470E+00
   0.698  0.516E+00  0.476E+00
   0.718  0.522E+00  0.480E+00
   0.738  0.528E+00  0.485E+00
   0.758  0.532E+00  0.489E+00
   0.778  0.537E+00  0.493E+00
   0.798  0.540E+00  0.496E+00
   0.818  0.543E+00  0.498E+00
   0.838  0.546E+00  0.500E+00
   0.858  0.547E+00  0.501E+00
   0.878  0.548E+00  0.502E+00
   0.898  0.548E+00  0.501E+00
   0.918  0.547E+00  0.500E+00
   0.938  0.545E+00  0.499E+00
   0.958  0.543E+00  0.496E+00
   0.978  0.540E+00  0.493E+00
   0.998  0.536E+00  0.490E+00
   1.018  0.532E+00  0.486E+00
   1.038  0.527E+00  0.481E+00
   1.058  0.522E+00  0.477E+00
   1.078  0.516E+00  0.471E+00
   1.098  0.510E+00  0.466E+00
   1.118  0.504E+00  0.460E+00
   1.138  0.498E+00  0.455E+00
   1.158  0.492E+00  0.449E+00
   1.178  0.486E+00  0.444E+00
   1.198  0.480E+00  0.438E+00
   1.218  0.474E+00  0.433E+00
   1.238  0.469E+00  0.428E+00
   1.258  0.463E+00  0.424E+00
   1.278  0.459E+00  0.420E+00
   1.298  0.454E+00  0.416E+00
   1.318  0.451E+00  0.412E+00
   1.338  0.447E+00  0.409E+00
   1.358  0.444E+00  0.406E+00
   1.378  0.441E+00  0.403E+00
   1.398  0.439E+00  0.401E+00
   1.418  0.437E+00  0.399E+00
   1.438  0.435E+00  0.397E+00
   1.458  0.434E+00  0.396E+00
   1.478  0.432E+00  0.394E+00
   1.498  0.431E+00  0.393E+00
   1.518  0.430E+00  0.392E+00
   1.538  0.429E+00  0.390E+00
   1.558  0.428E+00  0.389E+00
   1.578  0.427E+00  0.388E+00
   1.598  0.426E+00  0.386E+00
   1.618  0.425E+00  0.385E+00
   1.638  0.424E+00  0.383E+00
   1.658  0.422E+00  0.381E+00
   1.678  0.420E+00  0.379E+00
   1.698  0.418E+00  0.376E+00
   1.718  0.416E+00  0.373E+00
   1.738  0.413E+00  0.370E+00
   1.758  0.410E+00  0.367E+00
   1.778  0.406E+00  0.363E+00
   1.798  0.403E+00  0.359E+00
   1.818  0.399E+00  0.355E+00
   1.838  0.394E+00  0.350E+00
   1.858  0.390E+00  0.345E+00
   1.878  0.384E+00  0.340E+00
   1.898  0.379E+00  0.334E+00
   1.918  0.373E+00  0.328E+00
   1.938  0.367E+00  0.322E+00
   1.958  0.361E+00  0.316E+00
   1.978  0.355E+00  0.310E+00
   1.998  0.349E+00  0.303E+00
   2.018  0.342E+00  0.297E+00
   2.038  0.335E+00  0.290E+00
   2.058  0.329E+00  0.283E+00
   2.078  0.322E+00  0.277E+00
   2.098  0.315E+00  0.270E+00
   2.118  0.309E+00  0.263E+00
   2.138  0.302E+00  0.257E+00
   2.158  0.296E+00  0.250E+00
   2.178  0.290E+00  0.244E+00
   2.198  0.284E+00  0.238E+00
   2.218  0.278E+00  0.232E+00
   2.238  0.273E+00  0.227E+00
   2.258  0.267E+00  0.222E+00
   2.278  0.262E+00  0.217E+00
   2.298  0.258E+00  0.212E+00
   2.318  0.253E+00  0.207E+00
   2.338  0.249E+00  0.203E+00
   2.358  0.245E+00  0.199E+00
   2.378  0.242E+00  0.195E+00
   2.398  0.238E+00  0.191E+00
   2.418  0.235E+00  0.188E+00
   2.438  0.232E+00  0.185E+00
   2.458  0.229E+00  0.182E+00
   2.478  0.227E+00  0.179E+00
   2.498  0.224E+00  0.176E+00
   2.518  0.221E+00  0.173E+00
   2.538  0.219E+00  0.170E+00
   2.558  0.216E+00  0.167E+00
   2.578  0.214E+00  0.164E+00
   2.598  0.211E+00  0.161E+00
   2.618  0.209E+00  0.158E+00
   2.638  0.206E+00  0.155E+00
   2.658  0.203E+00  0.152E+00
   2.678  0.200E+00  0.149E+00
   2.698  0.197E+00  0.146E+00
   2.718  0.195E+00  0.142E+00
   2.738  0.192E+00  0.139E+00
   2.758  0.188E+00  0.135E+00
   2.778  0.185E+00  0.131E+00
   2.798  0.182E+00  0.128E+00
   2.818  0.179E+00  0.124E+00
   2.838  0.176E+00  0.120E+00
   2.858  0.173E+00  0.117E+00
   2.878  0.170E+00  0.113E+00
   2.898  0.167E+00  0.109E+00
   2.918  0.164E+00  0.106E+00
   2.938  0.162E+00  0.102E+00
   2.958  0.159E+00  0.988E-01
   2.978  0.156E+00  0.956E-01
   2.998  0.154E+00  0.925E-01
   3.018  0.152E+00  0.897E-01
   3.038  0.150E+00  0.871E-01
   3.058  0.149E+00  0.847E-01
   3.078  0.147E+00  0.826E-01
   3.098  0.146E+00  0.807E-01
   3.118  0.145E+00  0.792E-01
   3.138  0.145E+00  0.780E-01
   3.158  0.145E+00  0.771E-01
   3.178  0.145E+00  0.766E-01
   3.198  0.146E+00  0.765E-01
   3.218  0.147E+00  0.768E-01
   3.238  0.148E+00  0.775E-01
   3.258  0.150E+00  0.786E-01
   3.278  0.153E+00  0.802E-01
   3.298  0.156E+00  0.822E-01
   3.318  0.159E+00  0.847E-01
   3.338  0.163E+00  0.877E-01
   3.358  0.168E+00  0.911E-01
   3.378  0.173E+00  0.951E-01
   3.398  0.179E+00  0.996E-01
   3.418  0.185E+00  0.105E+00
   3.438  0.192E+00  0.110E+00
   3.458  0.200E+00  0.116E+00
   3.478  0.208E+00  0.123E+00
   3.498  0.217E+00  0.130E+00
   3.518  0.226E+00  0.137E+00
   3.538  0.236E+00  0.146E+00
   3.558  0.247E+00  0.154E+00
   3.578  0.258E+00  0.163E+00
   3.598  0.269E+00  0.173E+00
   3.618  0.281E+00  0.183E+00
   3.638  0.294E+00  0.193E+00
   3.658  0.307E+00  0.204E+00
   3.678  0.320E+00  0.215E+00
   3.698  0.334E+00  0.227E+00
   3.718  0.348E+00  0.239E+00
   3.738  0.362E+00  0.251E+00
   3.758  0.377E+00  0.263E+00
   3.778  0.392E+00  0.276E+00
   3.798  0.407E+00  0.289E+00
   3.818  0.422E+00  0.302E+00
   3.838  0.437E+00  0.315E+00
   3.858  0.453E+00  0.328E+00
   3.878  0.468E+00  0.341E+00
   3.898  0.483E+00  0.353E+00
   3.918  0.498E+00  0.366E+00
   3.938  0.513E+00  0.378E+00
   3.958  0.527E+00  0.390E+00
   3.978  0.541E+00  0.402E+00
   3.998  0.555E+00  0.413E+00
   4.018  0.568E+00  0.423E+00
   4.038  0.580E+00  0.433E+00
   4.058  0.591E+00  0.442E+00
   4.078  0.601E+00  0.450E+00
   4.098  0.610E+00  0.457E+00
   4.118  0.619E+00  0.464E+00
   4.138  0.626E+00  0.469E+00
   4.158  0.632E+00  0.474E+00
   4.178  0.636E+00  0.477E+00
   4.198  0.639E+00  0.480E+00
   4.218  0.641E+00  0.481E+00
   4.238  0.642E+00  0.481E+00
   4.258  0.641E+00  0.480E+00
   4.278  0.639E+00  0.478E+00
   4.298  0.635E+00  0.475E+00
   4.318  0.631E+00  0.471E+00
   4.338  0.625E+00  0.467E+00
   4.358  0.618E+00  0.462E+00
   4.378  0.611E+00  0.456E+00
   4.398  0.603E+00  0.449E+00
   4.418  0.594E+00  0.442E+00
   4.438  0.585E+00  0.435E+00
   4.458  0.575E+00  0.428E+00
   4.478  0.566E+00  0.420E+00
   4.498  0.556E+00  0.413E+00
   4.518  0.547E+00  0.406E+00
   4.538  0.538E+00  0.399E+00
   4.558  0.530E+00  0.392E+00
   4.578  0.522E+00  0.386E+00
   4.598  0.514E+00  0.381E+00
   4.618  0.508E+00  0.376E+00
   4.638  0.502E+00  0.371E+00
   4.658  0.497E+00  0.367E+00
   4.678  0.493E+00  0.364E+00
   4.698  0.490E+00  0.362E+00
   4.718  0.487E+00  0.360E+00
   4.738  0.485E+00  0.359E+00
   4.758  0.484E+00  0.358E+00
   4.778  0.484E+00  0.358E+00
   4.798  0.484E+00  0.358E+00
   4.818  0.484E+00  0.358E+00
   4.838  0.485E+00  0.359E+00
   4.858  0.486E+00  0.359E+00
   4.878  0.487E+00  0.360E+00
   4.898  0.488E+00  0.361E+00
   4.918  0.489E+00  0.361E+00
   4.938  0.489E+00  0.362E+00
   4.958  0.489E+00  0.362E+00
   4.978  0.489E+00  0.362E+00
   4.998  0.488E+00  0.361E+00
   5.018  0.487E+00  0.360E+00
   5.038  0.485E+00  0.359E+00
   5.058  0.482E+00  0.357E+00
   5.078  0.479E+00  0.355E+00
   5.098  0.475E+00  0.352E+00
   5.118  0.471E+00  0.349E+00
   5.138  0.466E+00  0.345E+00
   5.158  0.461E+00  0.341E+00
   5.178  0.455E+00  0.337E+00
   5.198  0.449E+00  0.333E+00
   5.218  0.443E+00  0.328E+00
   5.238  0.437E+00  0.324E+00
   5.258  0.430E+00  0.319E+00
   5.278  0.424E+00  0.315E+00
   5.298  0.418E+00  0.311E+00
   5.318  0.413E+00  0.307E+00
   5.338  0.408E+00  0.303E+00
   5.358  0.403E+00  0.300E+00
   5.378  0.399E+00  0.297E+00
   5.398  0.396E+00  0.295E+00
   5.418  0.394E+00  0.294E+00
   5.438  0.392E+00  0.293E+00
   5.458  0.392E+00  0.293E+00
   5.478  0.392E+00  0.293E+00
   5.498  0.393E+00  0.294E+00
   5.518  0.395E+00  0.296E+00
   5.538  0.398E+00  0.298E+00
   5.558  0.402E+00  0.301E+00
   5.578  0.406E+00  0.304E+00
   5.598  0.411E+00  0.308E+00
   5.618  0.416E+00  0.312E+00
   5.638  0.422E+00  0.317E+00
   5.658  0.427E+00  0.321E+00
   5.678  0.433E+00  0.326E+00
   5.698  0.439E+00  0.330E+00
   5.718  0.445E+00  0.334E+00
   5.738  0.450E+00  0.338E+00
   5.758  0.454E+00  0.342E+00
   5.778  0.459E+00  0.345E+00
   5.798  0.462E+00  0.347E+00
   5.818  0.465E+00  0.349E+00
   5.838  0.466E+00  0.350E+00
   5.858  0.467E+00  0.351E+00
   5.878  0.467E+00  0.350E+00
   5.898  0.466E+00  0.349E+00
   5.918  0.464E+00  0.348E+00
   5.938  0.461E+00  0.345E+00
   5.958  0.457E+00  0.342E+00
   5.978  0.452E+00  0.338E+00
   5.998  0.447E+00  0.334E+00
   6.018  0.441E+00  0.329E+00
   6.038  0.434E+00  0.324E+00
   6.058  0.427E+00  0.318E+00
   6.078  0.420E+00  0.312E+00
   6.098  0.413E+00  0.307E+00
   6.118  0.406E+00  0.301E+00
   6.138  0.399E+00  0.296E+00
   6.158  0.393E+00  0.291E+00
   6.178  0.387E+00  0.286E+00
   6.198  0.382E+00  0.282E+00
   6.218  0.378E+00  0.278E+00
   6.238  0.374E+00  0.275E+00
   6.258  0.372E+00  0.273E+00
   6.278  0.371E+00  0.272E+00
   6.298  0.370E+00  0.271E+00
   6.318  0.371E+00  0.271E+00
   6.338  0.373E+00  0.273E+00
   6.358  0.376E+00  0.275E+00
   6.378  0.380E+00  0.278E+00
   6.398  0.385E+00  0.281E+00
   6.418  0.392E+00  0.286E+00
   6.438  0.399E+00  0.291E+00
   6.458  0.408E+00  0.297E+00
   6.478  0.417E+00  0.304E+00
   6.498  0.427E+00  0.311E+00
   6.518  0.437E+00  0.319E+00
   6.538  0.449E+00  0.327E+00
   6.558  0.460E+00  0.336E+00
   6.578  0.473E+00  0.345E+00
   6.598  0.485E+00  0.354E+00
   6.618  0.498E+00  0.363E+00
   6.638  0.511E+00  0.372E+00
   6.658  0.523E+00  0.381E+00
   6.678  0.536E+00  0.390E+00
   6.698  0.549E+00  0.399E+00
   6.718  0.561E+00  0.408E+00
   6.738  0.573E+00  0.416E+00
   6.758  0.585E+00  0.424E+00
   6.778  0.597E+00  0.432E+00
   6.798  0.607E+00  0.439E+00
   6.818  0.618E+00  0.446E+00
   6.838  0.628E+00  0.452E+00
   6.858  0.637E+00  0.458E+00
   6.878  0.645E+00  0.464E+00
   6.898  0.653E+00  0.469E+00
   6.918  0.660E+00  0.473E+00
   6.938  0.666E+00  0.477E+00
   6.958  0.672E+00  0.480E+00
   6.978  0.677E+00  0.482E+00
   6.998  0.681E+00  0.484E+00
   7.018  0.684E+00  0.486E+00
   7.038  0.686E+00  0.487E+00
   7.058  0.687E+00  0.487E+00
   7.078  0.688E+00  0.487E+00
   7.098  0.688E+00  0.486E+00
   7.118  0.687E+00  0.484E+00
   7.138  0.685E+00  0.482E+00
   7.158  0.683E+00  0.480E+00
   7.178  0.679E+00  0.477E+00
   7.198  0.676E+00  0.473E+00
   7.218  0.671E+00  0.469E+00
   7.238  0.666E+00  0.465E+00
   7.258  0.660E+00  0.460E+00
   7.278  0.654E+00  0.455E+00
   7.298  0.647E+00  0.450E+00
   7.318  0.640E+00  0.444E+00
   7.338  0.632E+00  0.438E+00
   7.358  0.624E+00  0.431E+00
   7.378  0.616E+00  0.425E+00
   7.398  0.608E+00  0.418E+00
   7.418  0.600E+00  0.411E+00
   7.438  0.592E+00  0.404E+00
   7.458  0.583E+00  0.398E+00
   7.478  0.575E+00  0.391E+00
   7.498  0.567E+00  0.384E+00
   7.518  0.560E+00  0.377E+00
   7.538  0.552E+00  0.370E+00
   7.558  0.546E+00  0.364E+00
   7.578  0.539E+00  0.358E+00
   7.598  0.533E+00  0.351E+00
   7.618  0.528E+00  0.346E+00
   7.638  0.523E+00  0.340E+00
   7.658  0.519E+00  0.335E+00
   7.678  0.515E+00  0.331E+00
   7.698  0.512E+00  0.326E+00
   7.718  0.510E+00  0.322E+00
   7.738  0.509E+00  0.319E+00
   7.758  0.508E+00  0.316E+00
   7.778  0.508E+00  0.313E+00
   7.798  0.509E+00  0.311E+00
   7.818  0.511E+00  0.310E+00
   7.838  0.513E+00  0.309E+00
   7.858  0.516E+00  0.308E+00
   7.878  0.520E+00  0.308E+00
   7.898  0.525E+00  0.308E+00
   7.918  0.530E+00  0.309E+00
   7.938  0.535E+00  0.310E+00
   7.958  0.541E+00  0.311E+00
   7.978  0.548E+00  0.313E+00
   7.998  0.555E+00  0.315E+00
   8.018  0.562E+00  0.317E+00
   8.038  0.569E+00  0.319E+00
   8.058  0.576E+00  0.322E+00
   8.078  0.583E+00  0.324E+00
   8.098  0.591E+00  0.327E+00
   8.118  0.597E+00  0.329E+00
   8.138  0.604E+00  0.332E+00
   8.158  0.610E+00  0.334E+00
   8.178  0.615E+00  0.336E+00
   8.198  0.620E+00  0.338E+00
   8.218  0.624E+00  0.340E+00
   8.238  0.628E+00  0.341E+00
   8.258  0.630E+00  0.341E+00
   8.278  0.632E+00  0.342E+00
   8.298  0.632E+00  0.342E+00
   8.318  0.632E+00  0.341E+00
   8.338  0.630E+00  0.340E+00
   8.358  0.628E+00  0.338E+00
   8.378  0.624E+00  0.336E+00
   8.398  0.619E+00  0.333E+00
   8.418  0.614E+00  0.330E+00
   8.438  0.607E+00  0.326E+00
   8.458  0.599E+00  0.322E+00
   8.478  0.590E+00  0.317E+00
   8.498  0.580E+00  0.312E+00
   8.518  0.570E+00  0.306E+00
   8.538  0.559E+00  0.300E+00
   8.558  0.547E+00  0.294E+00
   8.578  0.534E+00  0.287E+00
   8.598  0.522E+00  0.280E+00
   8.618  0.509E+00  0.273E+00
   8.638  0.496E+00  0.266E+00
