# E (eV)  dos(E)    pdos(E)
  -5.081  0.827E-06  0.820E-06
  -5.061  0.996E-06  0.989E-06
  -5.041  0.120E-05  0.119E-05
  -5.021  0.144E-05  0.143E-05
  -5.001  0.173E-05  0.171E-05
  -4.981  0.207E-05  0.205E-05
  -4.961  0.247E-05  0.245E-05
  -4.941  0.295E-05  0.293E-05
  -4.921  0.352E-05  0.349E-05
  -4.901  0.419E-05  0.416E-05
  -4.881  0.497E-05  0.494E-05
  -4.861  0.590E-05  0.585E-05
  -4.841  0.699E-05  0.693E-05
  -4.821  0.826E-05  0.820E-05
  -4.801  0.975E-05  0.967E-05
  -4.781  0.115E-04  0.114E-04
  -4.761  0.135E-04  0.134E-04
  -4.741  0.159E-04  0.158E-04
  -4.721  0.186E-04  0.185E-04
  -4.701  0.218E-04  0.216E-04
  -4.681  0.255E-04  0.253E-04
  -4.661  0.298E-04  0.295E-04
  -4.641  0.347E-04  0.344E-04
  -4.621  0.404E-04  0.401E-04
  -4.601  0.469E-04  0.465E-04
  -4.581  0.544E-04  0.540E-04
  -4.561  0.630E-04  0.625E-04
  -4.541  0.728E-04  0.723E-04
  -4.521  0.841E-04  0.834E-04
  -4.501  0.969E-04  0.962E-04
  -4.481  0.112E-03  0.111E-03
  -4.461  0.128E-03  0.127E-03
  -4.441  0.147E-03  0.146E-03
  -4.421  0.168E-03  0.167E-03
  -4.401  0.193E-03  0.191E-03
  -4.381  0.220E-03  0.218E-03
  -4.361  0.251E-03  0.249E-03
  -4.341  0.286E-03  0.283E-03
  -4.321  0.325E-03  0.322E-03
  -4.301  0.369E-03  0.366E-03
  -4.281  0.418E-03  0.414E-03
  -4.261  0.473E-03  0.469E-03
  -4.241  0.534E-03  0.530E-03
  -4.221  0.602E-03  0.598E-03
  -4.201  0.678E-03  0.673E-03
  -4.181  0.763E-03  0.757E-03
  -4.161  0.857E-03  0.851E-03
  -4.141  0.961E-03  0.954E-03
  -4.121  0.108E-02  0.107E-02
  -4.101  0.120E-02  0.119E-02
  -4.081  0.134E-02  0.133E-02
  -4.061  0.150E-02  0.149E-02
  -4.041  0.167E-02  0.165E-02
  -4.021  0.185E-02  0.184E-02
  -4.001  0.206E-02  0.204E-02
  -3.981  0.228E-02  0.226E-02
  -3.961  0.252E-02  0.250E-02
  -3.941  0.278E-02  0.276E-02
  -3.921  0.307E-02  0.305E-02
  -3.901  0.338E-02  0.336E-02
  -3.881  0.372E-02  0.370E-02
  -3.861  0.409E-02  0.406E-02
  -3.841  0.449E-02  0.445E-02
  -3.821  0.492E-02  0.488E-02
  -3.801  0.538E-02  0.534E-02
  -3.781  0.588E-02  0.583E-02
  -3.761  0.641E-02  0.636E-02
  -3.741  0.698E-02  0.693E-02
  -3.721  0.760E-02  0.754E-02
  -3.701  0.825E-02  0.819E-02
  -3.681  0.895E-02  0.889E-02
  -3.661  0.970E-02  0.963E-02
  -3.641  0.105E-01  0.104E-01
  -3.621  0.113E-01  0.113E-01
  -3.601  0.122E-01  0.121E-01
  -3.581  0.132E-01  0.131E-01
  -3.561  0.142E-01  0.141E-01
  -3.541  0.153E-01  0.151E-01
  -3.521  0.164E-01  0.163E-01
  -3.501  0.176E-01  0.174E-01
  -3.481  0.188E-01  0.187E-01
  -3.461  0.201E-01  0.199E-01
  -3.441  0.215E-01  0.213E-01
  -3.421  0.229E-01  0.227E-01
  -3.401  0.244E-01  0.242E-01
  -3.381  0.259E-01  0.257E-01
  -3.361  0.276E-01  0.274E-01
  -3.341  0.293E-01  0.290E-01
  -3.321  0.310E-01  0.308E-01
  -3.301  0.328E-01  0.326E-01
  -3.281  0.347E-01  0.345E-01
  -3.261  0.367E-01  0.364E-01
  -3.241  0.387E-01  0.384E-01
  -3.221  0.408E-01  0.405E-01
  -3.201  0.429E-01  0.426E-01
  -3.181  0.452E-01  0.448E-01
  -3.161  0.474E-01  0.471E-01
  -3.141  0.498E-01  0.494E-01
  -3.121  0.522E-01  0.518E-01
  -3.101  0.546E-01  0.542E-01
  -3.081  0.571E-01  0.567E-01
  -3.061  0.597E-01  0.592E-01
  -3.041  0.623E-01  0.618E-01
  -3.021  0.649E-01  0.645E-01
  -3.001  0.676E-01  0.672E-01
  -2.981  0.704E-01  0.699E-01
  -2.961  0.732E-01  0.727E-01
  -2.941  0.760E-01  0.755E-01
  -2.921  0.789E-01  0.783E-01
  -2.901  0.818E-01  0.812E-01
  -2.881  0.847E-01  0.841E-01
  -2.861  0.876E-01  0.870E-01
  -2.841  0.906E-01  0.900E-01
  -2.821  0.936E-01  0.929E-01
  -2.801  0.966E-01  0.959E-01
  -2.781  0.997E-01  0.989E-01
  -2.761  0.103E+00  0.102E+00
  -2.741  0.106E+00  0.105E+00
  -2.721  0.109E+00  0.108E+00
  -2.701  0.112E+00  0.111E+00
  -2.681  0.115E+00  0.114E+00
  -2.661  0.118E+00  0.117E+00
  -2.641  0.121E+00  0.120E+00
  -2.621  0.124E+00  0.123E+00
  -2.601  0.127E+00  0.126E+00
  -2.581  0.130E+00  0.129E+00
  -2.561  0.133E+00  0.132E+00
  -2.541  0.136E+00  0.135E+00
  -2.521  0.139E+00  0.138E+00
  -2.501  0.142E+00  0.141E+00
  -2.481  0.145E+00  0.144E+00
  -2.461  0.148E+00  0.147E+00
  -2.441  0.151E+00  0.150E+00
  -2.421  0.154E+00  0.153E+00
  -2.401  0.157E+00  0.155E+00
  -2.381  0.159E+00  0.158E+00
  -2.361  0.162E+00  0.161E+00
  -2.341  0.165E+00  0.164E+00
  -2.321  0.168E+00  0.166E+00
  -2.301  0.170E+00  0.169E+00
  -2.281  0.173E+00  0.172E+00
  -2.261  0.176E+00  0.174E+00
  -2.241  0.178E+00  0.177E+00
  -2.221  0.181E+00  0.179E+00
  -2.201  0.184E+00  0.182E+00
  -2.181  0.186E+00  0.185E+00
  -2.161  0.189E+00  0.187E+00
  -2.141  0.191E+00  0.189E+00
  -2.121  0.193E+00  0.192E+00
  -2.101  0.196E+00  0.194E+00
  -2.081  0.198E+00  0.197E+00
  -2.061  0.201E+00  0.199E+00
  -2.041  0.203E+00  0.201E+00
  -2.021  0.205E+00  0.203E+00
  -2.001  0.208E+00  0.206E+00
  -1.981  0.210E+00  0.208E+00
  -1.961  0.212E+00  0.210E+00
  -1.941  0.214E+00  0.212E+00
  -1.921  0.216E+00  0.214E+00
  -1.901  0.219E+00  0.217E+00
  -1.881  0.221E+00  0.219E+00
  -1.861  0.223E+00  0.221E+00
  -1.841  0.225E+00  0.223E+00
  -1.821  0.227E+00  0.225E+00
  -1.801  0.229E+00  0.227E+00
  -1.781  0.231E+00  0.229E+00
  -1.761  0.233E+00  0.231E+00
  -1.741  0.235E+00  0.233E+00
  -1.721  0.237E+00  0.235E+00
  -1.701  0.239E+00  0.237E+00
  -1.681  0.241E+00  0.238E+00
  -1.661  0.243E+00  0.240E+00
  -1.641  0.245E+00  0.242E+00
  -1.621  0.247E+00  0.244E+00
  -1.601  0.249E+00  0.246E+00
  -1.581  0.251E+00  0.248E+00
  -1.561  0.252E+00  0.250E+00
  -1.541  0.254E+00  0.251E+00
  -1.521  0.256E+00  0.253E+00
  -1.501  0.258E+00  0.255E+00
  -1.481  0.260E+00  0.257E+00
  -1.461  0.262E+00  0.258E+00
  -1.441  0.263E+00  0.260E+00
  -1.421  0.265E+00  0.262E+00
  -1.401  0.267E+00  0.264E+00
  -1.381  0.269E+00  0.265E+00
  -1.361  0.271E+00  0.267E+00
  -1.341  0.272E+00  0.269E+00
  -1.321  0.274E+00  0.270E+00
  -1.301  0.276E+00  0.272E+00
  -1.281  0.278E+00  0.274E+00
  -1.261  0.279E+00  0.275E+00
  -1.241  0.281E+00  0.277E+00
  -1.221  0.283E+00  0.279E+00
  -1.201  0.285E+00  0.280E+00
  -1.181  0.286E+00  0.282E+00
  -1.161  0.288E+00  0.284E+00
  -1.141  0.290E+00  0.285E+00
  -1.121  0.291E+00  0.287E+00
  -1.101  0.293E+00  0.289E+00
  -1.081  0.295E+00  0.290E+00
  -1.061  0.296E+00  0.292E+00
  -1.041  0.298E+00  0.293E+00
  -1.021  0.300E+00  0.295E+00
  -1.001  0.302E+00  0.297E+00
  -0.981  0.303E+00  0.298E+00
  -0.961  0.305E+00  0.300E+00
  -0.941  0.307E+00  0.301E+00
  -0.921  0.308E+00  0.303E+00
  -0.901  0.310E+00  0.305E+00
  -0.881  0.312E+00  0.306E+00
  -0.861  0.313E+00  0.308E+00
  -0.841  0.315E+00  0.309E+00
  -0.821  0.317E+00  0.311E+00
  -0.801  0.319E+00  0.313E+00
  -0.781  0.320E+00  0.314E+00
  -0.761  0.322E+00  0.316E+00
  -0.741  0.324E+00  0.317E+00
  -0.721  0.325E+00  0.319E+00
  -0.701  0.327E+00  0.321E+00
  -0.681  0.329E+00  0.322E+00
  -0.661  0.331E+00  0.324E+00
  -0.641  0.332E+00  0.325E+00
  -0.621  0.334E+00  0.327E+00
  -0.601  0.336E+00  0.329E+00
  -0.581  0.338E+00  0.330E+00
  -0.561  0.339E+00  0.332E+00
  -0.541  0.341E+00  0.333E+00
  -0.521  0.343E+00  0.335E+00
  -0.501  0.345E+00  0.337E+00
  -0.481  0.347E+00  0.338E+00
  -0.461  0.349E+00  0.340E+00
  -0.441  0.350E+00  0.342E+00
  -0.421  0.352E+00  0.343E+00
  -0.401  0.354E+00  0.345E+00
  -0.381  0.356E+00  0.347E+00
  -0.361  0.358E+00  0.348E+00
  -0.341  0.360E+00  0.350E+00
  -0.321  0.362E+00  0.352E+00
  -0.301  0.364E+00  0.353E+00
  -0.281  0.366E+00  0.355E+00
  -0.261  0.368E+00  0.357E+00
  -0.241  0.370E+00  0.359E+00
  -0.221  0.372E+00  0.360E+00
  -0.201  0.374E+00  0.362E+00
  -0.181  0.376E+00  0.364E+00
  -0.161  0.379E+00  0.366E+00
  -0.141  0.381E+00  0.368E+00
  -0.121  0.383E+00  0.369E+00
  -0.101  0.385E+00  0.371E+00
  -0.081  0.387E+00  0.373E+00
  -0.061  0.390E+00  0.375E+00
  -0.041  0.392E+00  0.377E+00
  -0.021  0.394E+00  0.379E+00
  -0.001  0.397E+00  0.381E+00
   0.019  0.399E+00  0.382E+00
   0.039  0.401E+00  0.384E+00
   0.059  0.404E+00  0.386E+00
   0.079  0.406E+00  0.388E+00
   0.099  0.409E+00  0.390E+00
   0.119  0.411E+00  0.392E+00
   0.139  0.414E+00  0.394E+00
   0.159  0.416E+00  0.396E+00
   0.179  0.419E+00  0.398E+00
   0.199  0.421E+00  0.400E+00
   0.219  0.424E+00  0.402E+00
   0.239  0.426E+00  0.404E+00
   0.259  0.429E+00  0.406E+00
   0.279  0.431E+00  0.408E+00
   0.299  0.434E+00  0.410E+00
   0.319  0.436E+00  0.411E+00
   0.339  0.439E+00  0.413E+00
   0.359  0.441E+00  0.415E+00
   0.379  0.444E+00  0.417E+00
   0.399  0.446E+00  0.419E+00
   0.419  0.449E+00  0.421E+00
   0.439  0.451E+00  0.423E+00
   0.459  0.453E+00  0.424E+00
   0.479  0.456E+00  0.426E+00
   0.499  0.458E+00  0.428E+00
   0.519  0.460E+00  0.429E+00
   0.539  0.462E+00  0.431E+00
   0.559  0.464E+00  0.432E+00
   0.579  0.466E+00  0.434E+00
   0.599  0.468E+00  0.435E+00
   0.619  0.470E+00  0.436E+00
   0.639  0.472E+00  0.438E+00
   0.659  0.473E+00  0.439E+00
   0.679  0.475E+00  0.440E+00
   0.699  0.477E+00  0.441E+00
   0.719  0.478E+00  0.442E+00
   0.739  0.479E+00  0.443E+00
   0.759  0.480E+00  0.443E+00
   0.779  0.481E+00  0.444E+00
   0.799  0.482E+00  0.445E+00
   0.819  0.483E+00  0.445E+00
   0.839  0.484E+00  0.445E+00
   0.859  0.484E+00  0.446E+00
   0.879  0.485E+00  0.446E+00
   0.899  0.485E+00  0.446E+00
   0.919  0.485E+00  0.446E+00
   0.939  0.485E+00  0.446E+00
   0.959  0.485E+00  0.445E+00
   0.979  0.485E+00  0.445E+00
   0.999  0.485E+00  0.444E+00
   1.019  0.484E+00  0.443E+00
   1.039  0.484E+00  0.443E+00
   1.059  0.483E+00  0.442E+00
   1.079  0.482E+00  0.441E+00
   1.099  0.481E+00  0.439E+00
   1.119  0.480E+00  0.438E+00
   1.139  0.478E+00  0.437E+00
   1.159  0.477E+00  0.435E+00
   1.179  0.475E+00  0.434E+00
   1.199  0.473E+00  0.432E+00
   1.219  0.471E+00  0.430E+00
   1.239  0.470E+00  0.428E+00
   1.259  0.467E+00  0.426E+00
   1.279  0.465E+00  0.423E+00
   1.299  0.463E+00  0.421E+00
   1.319  0.460E+00  0.419E+00
   1.339  0.458E+00  0.416E+00
   1.359  0.455E+00  0.413E+00
   1.379  0.452E+00  0.411E+00
   1.399  0.450E+00  0.408E+00
   1.419  0.447E+00  0.405E+00
   1.439  0.444E+00  0.402E+00
   1.459  0.440E+00  0.399E+00
   1.479  0.437E+00  0.395E+00
   1.499  0.434E+00  0.392E+00
   1.519  0.431E+00  0.389E+00
   1.539  0.427E+00  0.385E+00
   1.559  0.424E+00  0.382E+00
   1.579  0.420E+00  0.378E+00
   1.599  0.417E+00  0.375E+00
   1.619  0.413E+00  0.371E+00
   1.639  0.409E+00  0.367E+00
   1.659  0.405E+00  0.363E+00
   1.679  0.402E+00  0.359E+00
   1.699  0.398E+00  0.355E+00
   1.719  0.394E+00  0.351E+00
   1.739  0.390E+00  0.347E+00
   1.759  0.386E+00  0.343E+00
   1.779  0.382E+00  0.339E+00
   1.799  0.378E+00  0.335E+00
   1.819  0.374E+00  0.331E+00
   1.839  0.370E+00  0.327E+00
   1.859  0.366E+00  0.323E+00
   1.879  0.362E+00  0.318E+00
   1.899  0.358E+00  0.314E+00
   1.919  0.354E+00  0.310E+00
   1.939  0.350E+00  0.306E+00
   1.959  0.345E+00  0.301E+00
   1.979  0.341E+00  0.297E+00
   1.999  0.337E+00  0.293E+00
   2.019  0.333E+00  0.288E+00
   2.039  0.329E+00  0.284E+00
   2.059  0.325E+00  0.279E+00
   2.079  0.321E+00  0.275E+00
   2.099  0.317E+00  0.271E+00
   2.119  0.312E+00  0.266E+00
   2.139  0.308E+00  0.262E+00
   2.159  0.304E+00  0.258E+00
   2.179  0.300E+00  0.253E+00
   2.199  0.296E+00  0.249E+00
   2.219  0.292E+00  0.245E+00
   2.239  0.288E+00  0.241E+00
   2.259  0.284E+00  0.236E+00
   2.279  0.280E+00  0.232E+00
   2.299  0.276E+00  0.228E+00
   2.319  0.272E+00  0.224E+00
   2.339  0.269E+00  0.220E+00
   2.359  0.265E+00  0.216E+00
   2.379  0.261E+00  0.212E+00
   2.399  0.257E+00  0.208E+00
   2.419  0.254E+00  0.204E+00
   2.439  0.250E+00  0.200E+00
   2.459  0.247E+00  0.196E+00
   2.479  0.243E+00  0.192E+00
   2.499  0.240E+00  0.189E+00
   2.519  0.237E+00  0.185E+00
   2.539  0.233E+00  0.182E+00
   2.559  0.230E+00  0.178E+00
   2.579  0.227E+00  0.175E+00
   2.599  0.224E+00  0.171E+00
   2.619  0.221E+00  0.168E+00
   2.639  0.218E+00  0.165E+00
   2.659  0.216E+00  0.162E+00
   2.679  0.213E+00  0.159E+00
   2.699  0.211E+00  0.156E+00
   2.719  0.209E+00  0.154E+00
   2.739  0.207E+00  0.151E+00
   2.759  0.205E+00  0.149E+00
   2.779  0.203E+00  0.147E+00
   2.799  0.201E+00  0.144E+00
   2.819  0.199E+00  0.142E+00
   2.839  0.198E+00  0.141E+00
   2.859  0.197E+00  0.139E+00
   2.879  0.196E+00  0.137E+00
   2.899  0.195E+00  0.136E+00
   2.919  0.195E+00  0.135E+00
   2.939  0.194E+00  0.134E+00
   2.959  0.194E+00  0.133E+00
   2.979  0.194E+00  0.133E+00
   2.999  0.194E+00  0.132E+00
   3.019  0.195E+00  0.132E+00
   3.039  0.196E+00  0.132E+00
   3.059  0.197E+00  0.132E+00
   3.079  0.198E+00  0.133E+00
   3.099  0.200E+00  0.133E+00
   3.119  0.201E+00  0.134E+00
   3.139  0.204E+00  0.136E+00
   3.159  0.206E+00  0.137E+00
   3.179  0.208E+00  0.139E+00
   3.199  0.211E+00  0.140E+00
   3.219  0.215E+00  0.143E+00
   3.239  0.218E+00  0.145E+00
   3.259  0.222E+00  0.148E+00
   3.279  0.226E+00  0.150E+00
   3.299  0.230E+00  0.153E+00
   3.319  0.234E+00  0.157E+00
   3.339  0.239E+00  0.160E+00
   3.359  0.244E+00  0.164E+00
   3.379  0.250E+00  0.168E+00
   3.399  0.255E+00  0.172E+00
   3.419  0.261E+00  0.177E+00
   3.439  0.267E+00  0.181E+00
   3.459  0.273E+00  0.186E+00
   3.479  0.280E+00  0.191E+00
   3.499  0.286E+00  0.196E+00
   3.519  0.293E+00  0.202E+00
   3.539  0.300E+00  0.207E+00
   3.559  0.307E+00  0.213E+00
   3.579  0.315E+00  0.219E+00
   3.599  0.322E+00  0.225E+00
   3.619  0.330E+00  0.231E+00
   3.639  0.337E+00  0.237E+00
   3.659  0.345E+00  0.243E+00
   3.679  0.353E+00  0.249E+00
   3.699  0.361E+00  0.256E+00
   3.719  0.368E+00  0.262E+00
   3.739  0.376E+00  0.268E+00
   3.759  0.384E+00  0.275E+00
   3.779  0.392E+00  0.281E+00
   3.799  0.400E+00  0.287E+00
   3.819  0.407E+00  0.293E+00
   3.839  0.415E+00  0.300E+00
   3.859  0.422E+00  0.306E+00
   3.879  0.430E+00  0.312E+00
   3.899  0.437E+00  0.317E+00
   3.919  0.444E+00  0.323E+00
   3.939  0.451E+00  0.329E+00
   3.959  0.457E+00  0.334E+00
   3.979  0.464E+00  0.339E+00
   3.999  0.470E+00  0.344E+00
   4.019  0.476E+00  0.349E+00
   4.039  0.482E+00  0.354E+00
   4.059  0.487E+00  0.358E+00
   4.079  0.492E+00  0.362E+00
   4.099  0.497E+00  0.366E+00
   4.119  0.502E+00  0.370E+00
   4.139  0.506E+00  0.374E+00
   4.159  0.510E+00  0.377E+00
   4.179  0.514E+00  0.380E+00
   4.199  0.518E+00  0.383E+00
   4.219  0.521E+00  0.385E+00
   4.239  0.524E+00  0.388E+00
   4.259  0.526E+00  0.390E+00
   4.279  0.528E+00  0.391E+00
   4.299  0.530E+00  0.393E+00
   4.319  0.532E+00  0.394E+00
   4.339  0.533E+00  0.396E+00
   4.359  0.535E+00  0.396E+00
   4.379  0.535E+00  0.397E+00
   4.399  0.536E+00  0.398E+00
   4.419  0.536E+00  0.398E+00
   4.439  0.536E+00  0.398E+00
   4.459  0.536E+00  0.398E+00
   4.479  0.536E+00  0.398E+00
   4.499  0.535E+00  0.397E+00
   4.519  0.535E+00  0.397E+00
   4.539  0.534E+00  0.396E+00
   4.559  0.532E+00  0.395E+00
   4.579  0.531E+00  0.394E+00
   4.599  0.530E+00  0.393E+00
   4.619  0.528E+00  0.391E+00
   4.639  0.526E+00  0.390E+00
   4.659  0.524E+00  0.389E+00
   4.679  0.522E+00  0.387E+00
   4.699  0.520E+00  0.385E+00
   4.719  0.518E+00  0.384E+00
   4.739  0.516E+00  0.382E+00
   4.759  0.513E+00  0.380E+00
   4.779  0.511E+00  0.378E+00
   4.799  0.508E+00  0.377E+00
   4.819  0.506E+00  0.375E+00
   4.839  0.503E+00  0.373E+00
   4.859  0.501E+00  0.371E+00
   4.879  0.498E+00  0.369E+00
   4.899  0.495E+00  0.367E+00
   4.919  0.493E+00  0.365E+00
   4.939  0.490E+00  0.363E+00
   4.959  0.487E+00  0.361E+00
   4.979  0.485E+00  0.359E+00
   4.999  0.482E+00  0.357E+00
   5.019  0.479E+00  0.355E+00
   5.039  0.477E+00  0.353E+00
   5.059  0.474E+00  0.351E+00
   5.079  0.472E+00  0.350E+00
   5.099  0.469E+00  0.348E+00
   5.119  0.467E+00  0.346E+00
   5.139  0.464E+00  0.344E+00
   5.159  0.462E+00  0.343E+00
   5.179  0.459E+00  0.341E+00
   5.199  0.457E+00  0.339E+00
   5.219  0.455E+00  0.338E+00
   5.239  0.453E+00  0.336E+00
   5.259  0.450E+00  0.335E+00
   5.279  0.448E+00  0.333E+00
   5.299  0.446E+00  0.332E+00
   5.319  0.444E+00  0.330E+00
   5.339  0.442E+00  0.329E+00
   5.359  0.441E+00  0.328E+00
   5.379  0.439E+00  0.326E+00
   5.399  0.437E+00  0.325E+00
   5.419  0.435E+00  0.324E+00
   5.439  0.434E+00  0.323E+00
   5.459  0.432E+00  0.322E+00
   5.479  0.431E+00  0.321E+00
   5.499  0.430E+00  0.320E+00
   5.519  0.428E+00  0.319E+00
   5.539  0.427E+00  0.318E+00
   5.559  0.426E+00  0.317E+00
   5.579  0.425E+00  0.316E+00
   5.599  0.424E+00  0.316E+00
   5.619  0.423E+00  0.315E+00
   5.639  0.423E+00  0.314E+00
   5.659  0.422E+00  0.314E+00
   5.679  0.422E+00  0.314E+00
   5.699  0.421E+00  0.313E+00
   5.719  0.421E+00  0.313E+00
   5.739  0.421E+00  0.313E+00
   5.759  0.421E+00  0.313E+00
   5.779  0.421E+00  0.313E+00
   5.799  0.421E+00  0.313E+00
   5.819  0.421E+00  0.313E+00
   5.839  0.422E+00  0.313E+00
   5.859  0.422E+00  0.313E+00
   5.879  0.423E+00  0.314E+00
   5.899  0.424E+00  0.314E+00
   5.919  0.425E+00  0.315E+00
   5.939  0.426E+00  0.315E+00
   5.959  0.427E+00  0.316E+00
   5.979  0.429E+00  0.317E+00
   5.999  0.430E+00  0.318E+00
   6.019  0.432E+00  0.319E+00
   6.039  0.433E+00  0.320E+00
   6.059  0.435E+00  0.321E+00
   6.079  0.437E+00  0.322E+00
   6.099  0.439E+00  0.324E+00
   6.119  0.441E+00  0.325E+00
   6.139  0.444E+00  0.327E+00
   6.159  0.446E+00  0.328E+00
   6.179  0.449E+00  0.330E+00
   6.199  0.451E+00  0.332E+00
   6.219  0.454E+00  0.334E+00
   6.239  0.457E+00  0.335E+00
   6.259  0.460E+00  0.337E+00
   6.279  0.463E+00  0.340E+00
   6.299  0.466E+00  0.342E+00
   6.319  0.469E+00  0.344E+00
   6.339  0.472E+00  0.346E+00
   6.359  0.476E+00  0.348E+00
   6.379  0.479E+00  0.351E+00
   6.399  0.482E+00  0.353E+00
   6.419  0.486E+00  0.355E+00
   6.439  0.490E+00  0.358E+00
   6.459  0.493E+00  0.360E+00
   6.479  0.497E+00  0.362E+00
   6.499  0.500E+00  0.365E+00
   6.519  0.504E+00  0.367E+00
   6.539  0.508E+00  0.370E+00
   6.559  0.511E+00  0.372E+00
   6.579  0.515E+00  0.375E+00
   6.599  0.519E+00  0.377E+00
   6.619  0.523E+00  0.379E+00
   6.639  0.526E+00  0.382E+00
   6.659  0.530E+00  0.384E+00
   6.679  0.533E+00  0.386E+00
   6.699  0.537E+00  0.388E+00
   6.719  0.540E+00  0.390E+00
   6.739  0.544E+00  0.393E+00
   6.759  0.547E+00  0.395E+00
   6.779  0.551E+00  0.396E+00
   6.799  0.554E+00  0.398E+00
   6.819  0.557E+00  0.400E+00
   6.839  0.560E+00  0.402E+00
   6.859  0.563E+00  0.403E+00
   6.879  0.566E+00  0.405E+00
   6.899  0.569E+00  0.406E+00
   6.919  0.571E+00  0.407E+00
   6.939  0.574E+00  0.408E+00
   6.959  0.576E+00  0.409E+00
   6.979  0.579E+00  0.410E+00
   6.999  0.581E+00  0.411E+00
   7.019  0.583E+00  0.412E+00
   7.039  0.585E+00  0.412E+00
   7.059  0.587E+00  0.413E+00
   7.079  0.588E+00  0.413E+00
   7.099  0.590E+00  0.413E+00
   7.119  0.591E+00  0.413E+00
   7.139  0.592E+00  0.413E+00
   7.159  0.594E+00  0.413E+00
   7.179  0.595E+00  0.413E+00
   7.199  0.595E+00  0.412E+00
   7.219  0.596E+00  0.411E+00
   7.239  0.597E+00  0.411E+00
   7.259  0.597E+00  0.410E+00
   7.279  0.598E+00  0.409E+00
   7.299  0.598E+00  0.408E+00
   7.319  0.598E+00  0.407E+00
   7.339  0.598E+00  0.405E+00
   7.359  0.598E+00  0.404E+00
   7.379  0.598E+00  0.402E+00
   7.399  0.597E+00  0.401E+00
   7.419  0.597E+00  0.399E+00
   7.439  0.596E+00  0.397E+00
   7.459  0.596E+00  0.396E+00
   7.479  0.595E+00  0.394E+00
   7.499  0.594E+00  0.392E+00
   7.519  0.593E+00  0.390E+00
   7.539  0.592E+00  0.387E+00
   7.559  0.591E+00  0.385E+00
   7.579  0.590E+00  0.383E+00
   7.599  0.589E+00  0.381E+00
   7.619  0.588E+00  0.378E+00
   7.639  0.587E+00  0.376E+00
   7.659  0.586E+00  0.374E+00
   7.679  0.584E+00  0.371E+00
   7.699  0.583E+00  0.369E+00
   7.719  0.582E+00  0.366E+00
   7.739  0.580E+00  0.364E+00
   7.759  0.579E+00  0.361E+00
   7.779  0.577E+00  0.359E+00
