# E (eV)  dos(E)    pdos(E)
  -3.856  0.734E-06  0.728E-06
  -3.836  0.116E-05  0.115E-05
  -3.816  0.181E-05  0.180E-05
  -3.796  0.280E-05  0.278E-05
  -3.776  0.429E-05  0.425E-05
  -3.756  0.650E-05  0.645E-05
  -3.736  0.976E-05  0.968E-05
  -3.716  0.145E-04  0.144E-04
  -3.696  0.213E-04  0.212E-04
  -3.676  0.311E-04  0.309E-04
  -3.656  0.449E-04  0.445E-04
  -3.636  0.641E-04  0.637E-04
  -3.616  0.908E-04  0.901E-04
  -3.596  0.127E-03  0.126E-03
  -3.576  0.177E-03  0.175E-03
  -3.556  0.243E-03  0.241E-03
  -3.536  0.331E-03  0.328E-03
  -3.516  0.446E-03  0.442E-03
  -3.496  0.596E-03  0.591E-03
  -3.476  0.789E-03  0.783E-03
  -3.456  0.103E-02  0.103E-02
  -3.436  0.134E-02  0.133E-02
  -3.416  0.173E-02  0.172E-02
  -3.396  0.221E-02  0.219E-02
  -3.376  0.279E-02  0.277E-02
  -3.356  0.350E-02  0.347E-02
  -3.336  0.435E-02  0.432E-02
  -3.316  0.536E-02  0.532E-02
  -3.296  0.655E-02  0.650E-02
  -3.276  0.793E-02  0.787E-02
  -3.256  0.953E-02  0.946E-02
  -3.236  0.114E-01  0.113E-01
  -3.216  0.134E-01  0.133E-01
  -3.196  0.157E-01  0.156E-01
  -3.176  0.183E-01  0.182E-01
  -3.156  0.212E-01  0.210E-01
  -3.136  0.243E-01  0.241E-01
  -3.116  0.276E-01  0.274E-01
  -3.096  0.312E-01  0.310E-01
  -3.076  0.351E-01  0.348E-01
  -3.056  0.391E-01  0.388E-01
  -3.036  0.434E-01  0.430E-01
  -3.016  0.478E-01  0.474E-01
  -2.996  0.523E-01  0.519E-01
  -2.976  0.570E-01  0.566E-01
  -2.956  0.618E-01  0.613E-01
  -2.936  0.666E-01  0.661E-01
  -2.916  0.714E-01  0.709E-01
  -2.896  0.762E-01  0.757E-01
  -2.876  0.810E-01  0.804E-01
  -2.856  0.858E-01  0.852E-01
  -2.836  0.905E-01  0.898E-01
  -2.816  0.951E-01  0.944E-01
  -2.796  0.996E-01  0.989E-01
  -2.776  0.104E+00  0.103E+00
  -2.756  0.108E+00  0.107E+00
  -2.736  0.112E+00  0.112E+00
  -2.716  0.116E+00  0.116E+00
  -2.696  0.120E+00  0.120E+00
  -2.676  0.124E+00  0.123E+00
  -2.656  0.128E+00  0.127E+00
  -2.636  0.131E+00  0.131E+00
  -2.616  0.135E+00  0.134E+00
  -2.596  0.138E+00  0.137E+00
  -2.576  0.142E+00  0.141E+00
  -2.556  0.145E+00  0.144E+00
  -2.536  0.148E+00  0.147E+00
  -2.516  0.151E+00  0.150E+00
  -2.496  0.154E+00  0.153E+00
  -2.476  0.157E+00  0.156E+00
  -2.456  0.160E+00  0.159E+00
  -2.436  0.162E+00  0.161E+00
  -2.416  0.165E+00  0.164E+00
  -2.396  0.168E+00  0.167E+00
  -2.376  0.170E+00  0.169E+00
  -2.356  0.173E+00  0.172E+00
  -2.336  0.175E+00  0.174E+00
  -2.316  0.178E+00  0.177E+00
  -2.296  0.180E+00  0.179E+00
  -2.276  0.183E+00  0.181E+00
  -2.256  0.185E+00  0.184E+00
  -2.236  0.187E+00  0.186E+00
  -2.216  0.190E+00  0.189E+00
  -2.196  0.192E+00  0.191E+00
  -2.176  0.195E+00  0.193E+00
  -2.156  0.197E+00  0.195E+00
  -2.136  0.199E+00  0.198E+00
  -2.116  0.201E+00  0.200E+00
  -2.096  0.204E+00  0.202E+00
  -2.076  0.206E+00  0.204E+00
  -2.056  0.208E+00  0.206E+00
  -2.036  0.210E+00  0.208E+00
  -2.016  0.212E+00  0.210E+00
  -1.996  0.214E+00  0.212E+00
  -1.976  0.216E+00  0.214E+00
  -1.956  0.218E+00  0.216E+00
  -1.936  0.220E+00  0.218E+00
  -1.916  0.222E+00  0.220E+00
  -1.896  0.223E+00  0.222E+00
  -1.876  0.225E+00  0.224E+00
  -1.856  0.227E+00  0.225E+00
  -1.836  0.229E+00  0.227E+00
  -1.816  0.231E+00  0.229E+00
  -1.796  0.233E+00  0.231E+00
  -1.776  0.235E+00  0.233E+00
  -1.756  0.237E+00  0.235E+00
  -1.736  0.239E+00  0.237E+00
  -1.716  0.241E+00  0.239E+00
  -1.696  0.243E+00  0.241E+00
  -1.676  0.245E+00  0.243E+00
  -1.656  0.247E+00  0.245E+00
  -1.636  0.249E+00  0.247E+00
  -1.616  0.251E+00  0.248E+00
  -1.596  0.253E+00  0.250E+00
  -1.576  0.254E+00  0.252E+00
  -1.556  0.256E+00  0.253E+00
  -1.536  0.258E+00  0.255E+00
  -1.516  0.259E+00  0.256E+00
  -1.496  0.260E+00  0.257E+00
  -1.476  0.262E+00  0.259E+00
  -1.456  0.263E+00  0.260E+00
  -1.436  0.265E+00  0.262E+00
  -1.416  0.266E+00  0.263E+00
  -1.396  0.268E+00  0.265E+00
  -1.376  0.269E+00  0.266E+00
  -1.356  0.271E+00  0.268E+00
  -1.336  0.273E+00  0.269E+00
  -1.316  0.275E+00  0.271E+00
  -1.296  0.277E+00  0.273E+00
  -1.276  0.279E+00  0.275E+00
  -1.256  0.281E+00  0.277E+00
  -1.236  0.283E+00  0.279E+00
  -1.216  0.285E+00  0.281E+00
  -1.196  0.287E+00  0.283E+00
  -1.176  0.289E+00  0.285E+00
  -1.156  0.291E+00  0.287E+00
  -1.136  0.293E+00  0.289E+00
  -1.116  0.295E+00  0.291E+00
  -1.096  0.296E+00  0.292E+00
  -1.076  0.298E+00  0.293E+00
  -1.056  0.299E+00  0.295E+00
  -1.036  0.300E+00  0.296E+00
  -1.016  0.301E+00  0.297E+00
  -0.996  0.302E+00  0.298E+00
  -0.976  0.303E+00  0.299E+00
  -0.956  0.304E+00  0.299E+00
  -0.936  0.305E+00  0.300E+00
  -0.916  0.306E+00  0.301E+00
  -0.896  0.307E+00  0.302E+00
  -0.876  0.308E+00  0.303E+00
  -0.856  0.310E+00  0.305E+00
  -0.836  0.311E+00  0.306E+00
  -0.816  0.313E+00  0.308E+00
  -0.796  0.315E+00  0.310E+00
  -0.776  0.317E+00  0.312E+00
  -0.756  0.320E+00  0.314E+00
  -0.736  0.322E+00  0.317E+00
  -0.716  0.325E+00  0.319E+00
  -0.696  0.328E+00  0.322E+00
  -0.676  0.331E+00  0.325E+00
  -0.656  0.333E+00  0.327E+00
  -0.636  0.336E+00  0.329E+00
  -0.616  0.338E+00  0.332E+00
  -0.596  0.340E+00  0.334E+00
  -0.576  0.342E+00  0.335E+00
  -0.556  0.344E+00  0.337E+00
  -0.536  0.345E+00  0.338E+00
  -0.516  0.346E+00  0.339E+00
  -0.496  0.347E+00  0.340E+00
  -0.476  0.347E+00  0.340E+00
  -0.456  0.347E+00  0.340E+00
  -0.436  0.348E+00  0.340E+00
  -0.416  0.348E+00  0.340E+00
  -0.396  0.348E+00  0.341E+00
  -0.376  0.348E+00  0.341E+00
  -0.356  0.349E+00  0.341E+00
  -0.336  0.349E+00  0.342E+00
  -0.316  0.350E+00  0.342E+00
  -0.296  0.352E+00  0.344E+00
  -0.276  0.353E+00  0.345E+00
  -0.256  0.356E+00  0.347E+00
  -0.236  0.358E+00  0.349E+00
  -0.216  0.361E+00  0.352E+00
  -0.196  0.364E+00  0.355E+00
  -0.176  0.368E+00  0.358E+00
  -0.156  0.371E+00  0.362E+00
  -0.136  0.375E+00  0.365E+00
  -0.116  0.379E+00  0.369E+00
  -0.096  0.383E+00  0.373E+00
  -0.076  0.387E+00  0.376E+00
  -0.056  0.391E+00  0.380E+00
  -0.036  0.394E+00  0.383E+00
  -0.016  0.397E+00  0.385E+00
   0.004  0.400E+00  0.388E+00
   0.024  0.402E+00  0.389E+00
   0.044  0.403E+00  0.391E+00
   0.064  0.404E+00  0.391E+00
   0.084  0.405E+00  0.392E+00
   0.104  0.406E+00  0.392E+00
   0.124  0.406E+00  0.392E+00
   0.144  0.406E+00  0.391E+00
   0.164  0.405E+00  0.390E+00
   0.184  0.405E+00  0.390E+00
   0.204  0.405E+00  0.389E+00
   0.224  0.405E+00  0.389E+00
   0.244  0.406E+00  0.389E+00
   0.264  0.407E+00  0.389E+00
   0.284  0.408E+00  0.390E+00
   0.304  0.410E+00  0.391E+00
   0.324  0.413E+00  0.393E+00
   0.344  0.416E+00  0.395E+00
   0.364  0.420E+00  0.398E+00
   0.384  0.425E+00  0.402E+00
   0.404  0.431E+00  0.407E+00
   0.424  0.437E+00  0.411E+00
   0.444  0.443E+00  0.417E+00
   0.464  0.450E+00  0.423E+00
   0.484  0.458E+00  0.429E+00
   0.504  0.466E+00  0.435E+00
   0.524  0.473E+00  0.441E+00
   0.544  0.481E+00  0.448E+00
   0.564  0.489E+00  0.454E+00
   0.584  0.496E+00  0.459E+00
   0.604  0.503E+00  0.465E+00
   0.624  0.509E+00  0.469E+00
   0.644  0.515E+00  0.474E+00
   0.664  0.520E+00  0.477E+00
   0.684  0.524E+00  0.480E+00
   0.704  0.527E+00  0.482E+00
   0.724  0.529E+00  0.483E+00
   0.744  0.531E+00  0.483E+00
   0.764  0.531E+00  0.483E+00
   0.784  0.531E+00  0.482E+00
   0.804  0.530E+00  0.481E+00
   0.824  0.529E+00  0.479E+00
   0.844  0.527E+00  0.477E+00
   0.864  0.525E+00  0.475E+00
   0.884  0.523E+00  0.472E+00
   0.904  0.521E+00  0.470E+00
   0.924  0.519E+00  0.469E+00
   0.944  0.517E+00  0.467E+00
   0.964  0.516E+00  0.466E+00
   0.984  0.515E+00  0.466E+00
   1.004  0.514E+00  0.466E+00
   1.024  0.514E+00  0.467E+00
   1.044  0.515E+00  0.468E+00
   1.064  0.516E+00  0.469E+00
   1.084  0.518E+00  0.471E+00
   1.104  0.519E+00  0.474E+00
   1.124  0.521E+00  0.476E+00
   1.144  0.523E+00  0.478E+00
   1.164  0.525E+00  0.481E+00
   1.184  0.526E+00  0.482E+00
   1.204  0.527E+00  0.484E+00
   1.224  0.528E+00  0.484E+00
   1.244  0.527E+00  0.484E+00
   1.264  0.526E+00  0.483E+00
   1.284  0.523E+00  0.481E+00
   1.304  0.519E+00  0.478E+00
   1.324  0.515E+00  0.473E+00
   1.344  0.509E+00  0.468E+00
   1.364  0.502E+00  0.462E+00
   1.384  0.494E+00  0.454E+00
   1.404  0.485E+00  0.446E+00
   1.424  0.475E+00  0.437E+00
   1.444  0.465E+00  0.427E+00
   1.464  0.455E+00  0.417E+00
   1.484  0.444E+00  0.407E+00
   1.504  0.434E+00  0.397E+00
   1.524  0.423E+00  0.387E+00
   1.544  0.414E+00  0.378E+00
   1.564  0.404E+00  0.369E+00
   1.584  0.396E+00  0.361E+00
   1.604  0.389E+00  0.354E+00
   1.624  0.383E+00  0.348E+00
   1.644  0.378E+00  0.342E+00
   1.664  0.374E+00  0.338E+00
   1.684  0.371E+00  0.335E+00
   1.704  0.369E+00  0.333E+00
   1.724  0.369E+00  0.332E+00
   1.744  0.370E+00  0.332E+00
   1.764  0.371E+00  0.332E+00
   1.784  0.373E+00  0.334E+00
   1.804  0.376E+00  0.335E+00
   1.824  0.378E+00  0.337E+00
   1.844  0.381E+00  0.339E+00
   1.864  0.383E+00  0.340E+00
   1.884  0.385E+00  0.341E+00
   1.904  0.387E+00  0.342E+00
   1.924  0.387E+00  0.341E+00
   1.944  0.386E+00  0.340E+00
   1.964  0.384E+00  0.337E+00
   1.984  0.381E+00  0.334E+00
   2.004  0.376E+00  0.329E+00
   2.024  0.370E+00  0.323E+00
   2.044  0.363E+00  0.316E+00
   2.064  0.354E+00  0.307E+00
   2.084  0.345E+00  0.298E+00
   2.104  0.334E+00  0.288E+00
   2.124  0.323E+00  0.277E+00
   2.144  0.311E+00  0.266E+00
   2.164  0.299E+00  0.255E+00
   2.184  0.287E+00  0.244E+00
   2.204  0.276E+00  0.233E+00
   2.224  0.265E+00  0.222E+00
   2.244  0.255E+00  0.212E+00
   2.264  0.246E+00  0.203E+00
   2.284  0.238E+00  0.195E+00
   2.304  0.231E+00  0.188E+00
   2.324  0.226E+00  0.182E+00
   2.344  0.222E+00  0.177E+00
   2.364  0.219E+00  0.174E+00
   2.384  0.218E+00  0.171E+00
   2.404  0.218E+00  0.170E+00
   2.424  0.219E+00  0.169E+00
   2.444  0.220E+00  0.170E+00
   2.464  0.223E+00  0.170E+00
   2.484  0.226E+00  0.172E+00
   2.504  0.229E+00  0.173E+00
   2.524  0.232E+00  0.174E+00
   2.544  0.235E+00  0.176E+00
   2.564  0.237E+00  0.176E+00
   2.584  0.238E+00  0.177E+00
   2.604  0.239E+00  0.177E+00
   2.624  0.238E+00  0.175E+00
   2.644  0.236E+00  0.173E+00
   2.664  0.233E+00  0.170E+00
   2.684  0.229E+00  0.167E+00
   2.704  0.223E+00  0.162E+00
   2.724  0.217E+00  0.156E+00
   2.744  0.209E+00  0.150E+00
   2.764  0.200E+00  0.143E+00
   2.784  0.191E+00  0.135E+00
   2.804  0.182E+00  0.127E+00
   2.824  0.172E+00  0.119E+00
   2.844  0.162E+00  0.111E+00
   2.864  0.152E+00  0.103E+00
   2.884  0.143E+00  0.956E-01
   2.904  0.134E+00  0.883E-01
   2.924  0.126E+00  0.815E-01
   2.944  0.119E+00  0.754E-01
   2.964  0.113E+00  0.700E-01
   2.984  0.108E+00  0.654E-01
   3.004  0.104E+00  0.617E-01
   3.024  0.102E+00  0.587E-01
   3.044  0.100E+00  0.567E-01
   3.064  0.100E+00  0.554E-01
   3.084  0.101E+00  0.550E-01
   3.104  0.103E+00  0.554E-01
   3.124  0.106E+00  0.565E-01
   3.144  0.110E+00  0.582E-01
   3.164  0.115E+00  0.604E-01
   3.184  0.121E+00  0.631E-01
   3.204  0.127E+00  0.662E-01
   3.224  0.133E+00  0.696E-01
   3.244  0.140E+00  0.730E-01
   3.264  0.146E+00  0.766E-01
   3.284  0.152E+00  0.801E-01
   3.304  0.158E+00  0.835E-01
   3.324  0.164E+00  0.867E-01
   3.344  0.169E+00  0.897E-01
   3.364  0.173E+00  0.925E-01
   3.384  0.177E+00  0.950E-01
   3.404  0.180E+00  0.974E-01
   3.424  0.183E+00  0.996E-01
   3.444  0.185E+00  0.102E+00
   3.464  0.187E+00  0.104E+00
   3.484  0.190E+00  0.106E+00
   3.504  0.192E+00  0.109E+00
   3.524  0.195E+00  0.113E+00
   3.544  0.199E+00  0.117E+00
   3.564  0.204E+00  0.122E+00
   3.584  0.210E+00  0.128E+00
   3.604  0.218E+00  0.136E+00
   3.624  0.228E+00  0.145E+00
   3.644  0.240E+00  0.156E+00
   3.664  0.254E+00  0.168E+00
   3.684  0.270E+00  0.182E+00
   3.704  0.288E+00  0.198E+00
   3.724  0.309E+00  0.215E+00
   3.744  0.331E+00  0.234E+00
   3.764  0.355E+00  0.254E+00
   3.784  0.381E+00  0.275E+00
   3.804  0.407E+00  0.297E+00
   3.824  0.435E+00  0.319E+00
   3.844  0.462E+00  0.342E+00
   3.864  0.490E+00  0.364E+00
   3.884  0.517E+00  0.386E+00
   3.904  0.542E+00  0.407E+00
   3.924  0.566E+00  0.426E+00
   3.944  0.588E+00  0.444E+00
   3.964  0.608E+00  0.460E+00
   3.984  0.626E+00  0.474E+00
   4.004  0.640E+00  0.486E+00
   4.024  0.652E+00  0.496E+00
   4.044  0.662E+00  0.503E+00
   4.064  0.668E+00  0.509E+00
   4.084  0.672E+00  0.512E+00
   4.104  0.674E+00  0.513E+00
   4.124  0.673E+00  0.513E+00
   4.144  0.671E+00  0.511E+00
   4.164  0.667E+00  0.507E+00
   4.184  0.662E+00  0.503E+00
   4.204  0.656E+00  0.498E+00
   4.224  0.650E+00  0.492E+00
   4.244  0.642E+00  0.486E+00
   4.264  0.634E+00  0.479E+00
   4.284  0.627E+00  0.473E+00
   4.304  0.619E+00  0.466E+00
   4.324  0.611E+00  0.459E+00
   4.344  0.603E+00  0.453E+00
   4.364  0.595E+00  0.446E+00
   4.384  0.588E+00  0.440E+00
   4.404  0.581E+00  0.434E+00
   4.424  0.575E+00  0.428E+00
   4.444  0.569E+00  0.423E+00
   4.464  0.563E+00  0.418E+00
   4.484  0.558E+00  0.413E+00
   4.504  0.554E+00  0.409E+00
   4.524  0.551E+00  0.406E+00
   4.544  0.548E+00  0.403E+00
   4.564  0.546E+00  0.401E+00
   4.584  0.545E+00  0.399E+00
   4.604  0.544E+00  0.398E+00
   4.624  0.543E+00  0.397E+00
   4.644  0.543E+00  0.397E+00
   4.664  0.543E+00  0.396E+00
   4.684  0.542E+00  0.395E+00
   4.704  0.541E+00  0.394E+00
   4.724  0.539E+00  0.393E+00
   4.744  0.537E+00  0.391E+00
   4.764  0.533E+00  0.389E+00
   4.784  0.529E+00  0.386E+00
   4.804  0.524E+00  0.382E+00
   4.824  0.517E+00  0.377E+00
   4.844  0.510E+00  0.372E+00
   4.864  0.501E+00  0.366E+00
   4.884  0.492E+00  0.360E+00
   4.904  0.483E+00  0.353E+00
   4.924  0.473E+00  0.346E+00
   4.944  0.463E+00  0.340E+00
   4.964  0.454E+00  0.334E+00
   4.984  0.446E+00  0.328E+00
   5.004  0.439E+00  0.323E+00
   5.024  0.432E+00  0.319E+00
   5.044  0.427E+00  0.315E+00
   5.064  0.424E+00  0.313E+00
   5.084  0.422E+00  0.312E+00
   5.104  0.422E+00  0.312E+00
   5.124  0.423E+00  0.314E+00
   5.144  0.425E+00  0.316E+00
   5.164  0.429E+00  0.319E+00
   5.184  0.433E+00  0.322E+00
   5.204  0.438E+00  0.326E+00
   5.224  0.443E+00  0.331E+00
   5.244  0.449E+00  0.335E+00
   5.264  0.453E+00  0.339E+00
   5.284  0.458E+00  0.342E+00
   5.304  0.461E+00  0.345E+00
   5.324  0.464E+00  0.347E+00
   5.344  0.465E+00  0.348E+00
   5.364  0.465E+00  0.348E+00
   5.384  0.463E+00  0.347E+00
   5.404  0.460E+00  0.345E+00
   5.424  0.456E+00  0.342E+00
   5.444  0.450E+00  0.338E+00
   5.464  0.444E+00  0.333E+00
   5.484  0.436E+00  0.328E+00
   5.504  0.429E+00  0.322E+00
   5.524  0.421E+00  0.316E+00
   5.544  0.412E+00  0.310E+00
   5.564  0.404E+00  0.305E+00
   5.584  0.397E+00  0.299E+00
   5.604  0.390E+00  0.294E+00
   5.624  0.384E+00  0.290E+00
   5.644  0.379E+00  0.286E+00
   5.664  0.375E+00  0.283E+00
   5.684  0.373E+00  0.281E+00
   5.704  0.371E+00  0.280E+00
   5.724  0.370E+00  0.279E+00
   5.744  0.371E+00  0.279E+00
   5.764  0.372E+00  0.280E+00
   5.784  0.374E+00  0.281E+00
   5.804  0.377E+00  0.283E+00
   5.824  0.380E+00  0.285E+00
   5.844  0.383E+00  0.287E+00
   5.864  0.385E+00  0.289E+00
   5.884  0.388E+00  0.290E+00
   5.904  0.391E+00  0.292E+00
   5.924  0.392E+00  0.293E+00
   5.944  0.394E+00  0.293E+00
   5.964  0.395E+00  0.293E+00
   5.984  0.395E+00  0.293E+00
   6.004  0.395E+00  0.292E+00
   6.024  0.394E+00  0.291E+00
   6.044  0.393E+00  0.290E+00
   6.064  0.393E+00  0.289E+00
   6.084  0.392E+00  0.288E+00
   6.104  0.392E+00  0.287E+00
   6.124  0.392E+00  0.287E+00
   6.144  0.392E+00  0.287E+00
   6.164  0.394E+00  0.287E+00
   6.184  0.397E+00  0.289E+00
   6.204  0.400E+00  0.291E+00
   6.224  0.405E+00  0.294E+00
   6.244  0.411E+00  0.298E+00
   6.264  0.417E+00  0.302E+00
   6.284  0.425E+00  0.308E+00
   6.304  0.433E+00  0.314E+00
   6.324  0.442E+00  0.320E+00
   6.344  0.452E+00  0.327E+00
   6.364  0.462E+00  0.334E+00
   6.384  0.472E+00  0.342E+00
   6.404  0.482E+00  0.349E+00
   6.424  0.491E+00  0.356E+00
   6.444  0.500E+00  0.363E+00
   6.464  0.508E+00  0.369E+00
   6.484  0.515E+00  0.375E+00
   6.504  0.521E+00  0.380E+00
   6.524  0.526E+00  0.384E+00
   6.544  0.530E+00  0.387E+00
   6.564  0.533E+00  0.390E+00
   6.584  0.535E+00  0.392E+00
   6.604  0.536E+00  0.393E+00
   6.624  0.536E+00  0.394E+00
   6.644  0.536E+00  0.394E+00
   6.664  0.535E+00  0.395E+00
   6.684  0.534E+00  0.395E+00
   6.704  0.533E+00  0.395E+00
   6.724  0.533E+00  0.395E+00
   6.744  0.533E+00  0.396E+00
   6.764  0.535E+00  0.397E+00
   6.784  0.537E+00  0.399E+00
   6.804  0.540E+00  0.401E+00
   6.824  0.545E+00  0.405E+00
   6.844  0.551E+00  0.409E+00
   6.864  0.559E+00  0.414E+00
   6.884  0.567E+00  0.420E+00
   6.904  0.577E+00  0.427E+00
   6.924  0.588E+00  0.433E+00
   6.944  0.600E+00  0.441E+00
   6.964  0.612E+00  0.448E+00
   6.984  0.624E+00  0.456E+00
   7.004  0.636E+00  0.463E+00
   7.024  0.648E+00  0.470E+00
   7.044  0.659E+00  0.476E+00
   7.064  0.669E+00  0.481E+00
   7.084  0.677E+00  0.486E+00
   7.104  0.685E+00  0.489E+00
   7.124  0.690E+00  0.491E+00
   7.144  0.694E+00  0.492E+00
   7.164  0.696E+00  0.492E+00
   7.184  0.696E+00  0.490E+00
   7.204  0.694E+00  0.487E+00
   7.224  0.691E+00  0.483E+00
   7.244  0.685E+00  0.478E+00
   7.264  0.678E+00  0.472E+00
   7.284  0.670E+00  0.465E+00
   7.304  0.661E+00  0.457E+00
   7.324  0.651E+00  0.449E+00
   7.344  0.640E+00  0.441E+00
   7.364  0.630E+00  0.432E+00
   7.384  0.619E+00  0.423E+00
   7.404  0.608E+00  0.415E+00
   7.424  0.598E+00  0.407E+00
   7.444  0.589E+00  0.399E+00
   7.464  0.580E+00  0.392E+00
   7.484  0.573E+00  0.386E+00
   7.504  0.566E+00  0.380E+00
   7.524  0.561E+00  0.374E+00
   7.544  0.557E+00  0.370E+00
   7.564  0.553E+00  0.366E+00
   7.584  0.552E+00  0.362E+00
   7.604  0.551E+00  0.359E+00
   7.624  0.551E+00  0.357E+00
   7.644  0.552E+00  0.355E+00
   7.664  0.554E+00  0.354E+00
   7.684  0.557E+00  0.353E+00
   7.704  0.560E+00  0.353E+00
   7.724  0.564E+00  0.353E+00
   7.744  0.568E+00  0.353E+00
   7.764  0.573E+00  0.353E+00
   7.784  0.577E+00  0.353E+00
   7.804  0.582E+00  0.353E+00
   7.824  0.586E+00  0.354E+00
   7.844  0.590E+00  0.354E+00
   7.864  0.593E+00  0.353E+00
   7.884  0.596E+00  0.353E+00
   7.904  0.598E+00  0.352E+00
   7.924  0.599E+00  0.351E+00
   7.944  0.600E+00  0.350E+00
   7.964  0.600E+00  0.348E+00
   7.984  0.599E+00  0.346E+00
   8.004  0.597E+00  0.343E+00
   8.024  0.594E+00  0.340E+00
   8.044  0.591E+00  0.337E+00
   8.064  0.586E+00  0.333E+00
   8.084  0.582E+00  0.329E+00
   8.104  0.576E+00  0.325E+00
   8.124  0.570E+00  0.321E+00
   8.144  0.563E+00  0.316E+00
   8.164  0.556E+00  0.311E+00
   8.184  0.549E+00  0.306E+00
   8.204  0.541E+00  0.301E+00
   8.224  0.533E+00  0.295E+00
   8.244  0.525E+00  0.290E+00
   8.264  0.518E+00  0.285E+00
   8.284  0.510E+00  0.279E+00
   8.304  0.503E+00  0.274E+00
   8.324  0.497E+00  0.269E+00
   8.344  0.491E+00  0.265E+00
   8.364  0.487E+00  0.261E+00
   8.384  0.483E+00  0.257E+00
   8.404  0.481E+00  0.254E+00
   8.424  0.479E+00  0.252E+00
   8.444  0.479E+00  0.250E+00
   8.464  0.480E+00  0.248E+00
   8.484  0.482E+00  0.248E+00
   8.504  0.485E+00  0.248E+00
   8.524  0.489E+00  0.248E+00
   8.544  0.493E+00  0.249E+00
   8.564  0.499E+00  0.251E+00
   8.584  0.504E+00  0.253E+00
   8.604  0.510E+00  0.255E+00
   8.624  0.516E+00  0.257E+00
   8.644  0.522E+00  0.259E+00
   8.664  0.527E+00  0.262E+00
   8.684  0.531E+00  0.264E+00
   8.704  0.535E+00  0.266E+00
   8.724  0.538E+00  0.267E+00
   8.744  0.540E+00  0.269E+00
   8.764  0.541E+00  0.270E+00
   8.784  0.541E+00  0.270E+00
   8.804  0.541E+00  0.270E+00
   8.824  0.539E+00  0.270E+00
   8.844  0.537E+00  0.270E+00
   8.864  0.534E+00  0.270E+00
   8.884  0.530E+00  0.269E+00
   8.904  0.526E+00  0.268E+00
   8.924  0.522E+00  0.267E+00
   8.944  0.518E+00  0.267E+00
   8.964  0.514E+00  0.266E+00
   8.984  0.510E+00  0.266E+00
   9.004  0.506E+00  0.265E+00
