# E (eV)  dos(E)    pdos(E)
  -4.239  0.110E-05  0.109E-05
  -4.219  0.149E-05  0.147E-05
  -4.199  0.200E-05  0.199E-05
  -4.179  0.269E-05  0.266E-05
  -4.159  0.359E-05  0.356E-05
  -4.139  0.477E-05  0.473E-05
  -4.119  0.631E-05  0.626E-05
  -4.099  0.831E-05  0.824E-05
  -4.079  0.109E-04  0.108E-04
  -4.059  0.142E-04  0.141E-04
  -4.039  0.185E-04  0.184E-04
  -4.019  0.239E-04  0.238E-04
  -3.999  0.309E-04  0.306E-04
  -3.979  0.396E-04  0.393E-04
  -3.959  0.506E-04  0.502E-04
  -3.939  0.643E-04  0.638E-04
  -3.919  0.815E-04  0.808E-04
  -3.899  0.103E-03  0.102E-03
  -3.879  0.129E-03  0.128E-03
  -3.859  0.161E-03  0.160E-03
  -3.839  0.201E-03  0.199E-03
  -3.819  0.249E-03  0.247E-03
  -3.799  0.307E-03  0.305E-03
  -3.779  0.377E-03  0.374E-03
  -3.759  0.462E-03  0.458E-03
  -3.739  0.563E-03  0.559E-03
  -3.719  0.683E-03  0.678E-03
  -3.699  0.826E-03  0.819E-03
  -3.679  0.994E-03  0.986E-03
  -3.659  0.119E-02  0.118E-02
  -3.639  0.142E-02  0.141E-02
  -3.619  0.169E-02  0.168E-02
  -3.599  0.200E-02  0.199E-02
  -3.579  0.236E-02  0.234E-02
  -3.559  0.277E-02  0.275E-02
  -3.539  0.324E-02  0.322E-02
  -3.519  0.378E-02  0.375E-02
  -3.499  0.439E-02  0.435E-02
  -3.479  0.507E-02  0.503E-02
  -3.459  0.584E-02  0.580E-02
  -3.439  0.670E-02  0.665E-02
  -3.419  0.766E-02  0.761E-02
  -3.399  0.873E-02  0.866E-02
  -3.379  0.990E-02  0.983E-02
  -3.359  0.112E-01  0.111E-01
  -3.339  0.126E-01  0.125E-01
  -3.319  0.142E-01  0.140E-01
  -3.299  0.158E-01  0.157E-01
  -3.279  0.176E-01  0.175E-01
  -3.259  0.196E-01  0.194E-01
  -3.239  0.217E-01  0.215E-01
  -3.219  0.239E-01  0.237E-01
  -3.199  0.263E-01  0.261E-01
  -3.179  0.288E-01  0.286E-01
  -3.159  0.315E-01  0.312E-01
  -3.139  0.343E-01  0.340E-01
  -3.119  0.372E-01  0.369E-01
  -3.099  0.403E-01  0.400E-01
  -3.079  0.434E-01  0.431E-01
  -3.059  0.467E-01  0.464E-01
  -3.039  0.501E-01  0.498E-01
  -3.019  0.536E-01  0.533E-01
  -2.999  0.572E-01  0.568E-01
  -2.979  0.609E-01  0.605E-01
  -2.959  0.647E-01  0.642E-01
  -2.939  0.685E-01  0.680E-01
  -2.919  0.723E-01  0.718E-01
  -2.899  0.762E-01  0.757E-01
  -2.879  0.801E-01  0.796E-01
  -2.859  0.841E-01  0.835E-01
  -2.839  0.880E-01  0.874E-01
  -2.819  0.920E-01  0.913E-01
  -2.799  0.959E-01  0.952E-01
  -2.779  0.998E-01  0.991E-01
  -2.759  0.104E+00  0.103E+00
  -2.739  0.108E+00  0.107E+00
  -2.719  0.111E+00  0.111E+00
  -2.699  0.115E+00  0.114E+00
  -2.679  0.119E+00  0.118E+00
  -2.659  0.122E+00  0.122E+00
  -2.639  0.126E+00  0.125E+00
  -2.619  0.130E+00  0.129E+00
  -2.599  0.133E+00  0.132E+00
  -2.579  0.136E+00  0.135E+00
  -2.559  0.140E+00  0.139E+00
  -2.539  0.143E+00  0.142E+00
  -2.519  0.146E+00  0.145E+00
  -2.499  0.149E+00  0.148E+00
  -2.479  0.153E+00  0.152E+00
  -2.459  0.156E+00  0.155E+00
  -2.439  0.159E+00  0.158E+00
  -2.419  0.162E+00  0.160E+00
  -2.399  0.164E+00  0.163E+00
  -2.379  0.167E+00  0.166E+00
  -2.359  0.170E+00  0.169E+00
  -2.339  0.173E+00  0.171E+00
  -2.319  0.175E+00  0.174E+00
  -2.299  0.178E+00  0.177E+00
  -2.279  0.180E+00  0.179E+00
  -2.259  0.183E+00  0.182E+00
  -2.239  0.185E+00  0.184E+00
  -2.219  0.188E+00  0.186E+00
  -2.199  0.190E+00  0.189E+00
  -2.179  0.192E+00  0.191E+00
  -2.159  0.195E+00  0.193E+00
  -2.139  0.197E+00  0.195E+00
  -2.119  0.199E+00  0.198E+00
  -2.099  0.201E+00  0.200E+00
  -2.079  0.203E+00  0.202E+00
  -2.059  0.205E+00  0.204E+00
  -2.039  0.208E+00  0.206E+00
  -2.019  0.210E+00  0.208E+00
  -1.999  0.212E+00  0.210E+00
  -1.979  0.214E+00  0.212E+00
  -1.959  0.216E+00  0.214E+00
  -1.939  0.218E+00  0.216E+00
  -1.919  0.220E+00  0.218E+00
  -1.899  0.222E+00  0.220E+00
  -1.879  0.224E+00  0.223E+00
  -1.859  0.227E+00  0.225E+00
  -1.839  0.229E+00  0.227E+00
  -1.819  0.231E+00  0.229E+00
  -1.799  0.233E+00  0.231E+00
  -1.779  0.235E+00  0.233E+00
  -1.759  0.237E+00  0.235E+00
  -1.739  0.239E+00  0.237E+00
  -1.719  0.241E+00  0.239E+00
  -1.699  0.243E+00  0.241E+00
  -1.679  0.245E+00  0.242E+00
  -1.659  0.247E+00  0.244E+00
  -1.639  0.249E+00  0.246E+00
  -1.619  0.250E+00  0.248E+00
  -1.599  0.252E+00  0.249E+00
  -1.579  0.254E+00  0.251E+00
  -1.559  0.255E+00  0.252E+00
  -1.539  0.257E+00  0.254E+00
  -1.519  0.258E+00  0.255E+00
  -1.499  0.260E+00  0.257E+00
  -1.479  0.261E+00  0.258E+00
  -1.459  0.262E+00  0.259E+00
  -1.439  0.264E+00  0.261E+00
  -1.419  0.265E+00  0.262E+00
  -1.399  0.267E+00  0.264E+00
  -1.379  0.268E+00  0.265E+00
  -1.359  0.270E+00  0.266E+00
  -1.339  0.272E+00  0.268E+00
  -1.319  0.273E+00  0.270E+00
  -1.299  0.275E+00  0.271E+00
  -1.279  0.277E+00  0.273E+00
  -1.259  0.279E+00  0.275E+00
  -1.239  0.281E+00  0.277E+00
  -1.219  0.283E+00  0.279E+00
  -1.199  0.285E+00  0.281E+00
  -1.179  0.287E+00  0.283E+00
  -1.159  0.289E+00  0.285E+00
  -1.139  0.291E+00  0.287E+00
  -1.119  0.293E+00  0.289E+00
  -1.099  0.295E+00  0.291E+00
  -1.079  0.297E+00  0.293E+00
  -1.059  0.299E+00  0.295E+00
  -1.039  0.301E+00  0.297E+00
  -1.019  0.303E+00  0.299E+00
  -0.999  0.305E+00  0.300E+00
  -0.979  0.307E+00  0.302E+00
  -0.959  0.308E+00  0.304E+00
  -0.939  0.310E+00  0.305E+00
  -0.919  0.312E+00  0.306E+00
  -0.899  0.313E+00  0.308E+00
  -0.879  0.314E+00  0.309E+00
  -0.859  0.315E+00  0.310E+00
  -0.839  0.317E+00  0.311E+00
  -0.819  0.318E+00  0.312E+00
  -0.799  0.319E+00  0.313E+00
  -0.779  0.320E+00  0.314E+00
  -0.759  0.321E+00  0.315E+00
  -0.739  0.322E+00  0.316E+00
  -0.719  0.323E+00  0.317E+00
  -0.699  0.324E+00  0.318E+00
  -0.679  0.325E+00  0.319E+00
  -0.659  0.326E+00  0.320E+00
  -0.639  0.328E+00  0.321E+00
  -0.619  0.329E+00  0.323E+00
  -0.599  0.330E+00  0.324E+00
  -0.579  0.332E+00  0.325E+00
  -0.559  0.333E+00  0.327E+00
  -0.539  0.335E+00  0.328E+00
  -0.519  0.337E+00  0.330E+00
  -0.499  0.339E+00  0.332E+00
  -0.479  0.341E+00  0.334E+00
  -0.459  0.343E+00  0.336E+00
  -0.439  0.345E+00  0.338E+00
  -0.419  0.348E+00  0.340E+00
  -0.399  0.350E+00  0.342E+00
  -0.379  0.352E+00  0.344E+00
  -0.359  0.355E+00  0.347E+00
  -0.339  0.357E+00  0.349E+00
  -0.319  0.360E+00  0.351E+00
  -0.299  0.362E+00  0.354E+00
  -0.279  0.365E+00  0.356E+00
  -0.259  0.367E+00  0.358E+00
  -0.239  0.370E+00  0.360E+00
  -0.219  0.372E+00  0.363E+00
  -0.199  0.375E+00  0.365E+00
  -0.179  0.377E+00  0.367E+00
  -0.159  0.379E+00  0.369E+00
  -0.139  0.381E+00  0.371E+00
  -0.119  0.383E+00  0.372E+00
  -0.099  0.385E+00  0.374E+00
  -0.079  0.387E+00  0.376E+00
  -0.059  0.389E+00  0.377E+00
  -0.039  0.391E+00  0.379E+00
  -0.019  0.392E+00  0.380E+00
   0.001  0.394E+00  0.381E+00
   0.021  0.396E+00  0.382E+00
   0.041  0.397E+00  0.384E+00
   0.061  0.399E+00  0.385E+00
   0.081  0.400E+00  0.386E+00
   0.101  0.402E+00  0.387E+00
   0.121  0.404E+00  0.388E+00
   0.141  0.405E+00  0.389E+00
   0.161  0.407E+00  0.390E+00
   0.181  0.409E+00  0.392E+00
   0.201  0.411E+00  0.393E+00
   0.221  0.413E+00  0.394E+00
   0.241  0.415E+00  0.396E+00
   0.261  0.417E+00  0.397E+00
   0.281  0.420E+00  0.399E+00
   0.301  0.423E+00  0.401E+00
   0.321  0.425E+00  0.403E+00
   0.341  0.428E+00  0.405E+00
   0.361  0.432E+00  0.407E+00
   0.381  0.435E+00  0.410E+00
   0.401  0.439E+00  0.413E+00
   0.421  0.443E+00  0.416E+00
   0.441  0.447E+00  0.419E+00
   0.461  0.451E+00  0.422E+00
   0.481  0.455E+00  0.425E+00
   0.501  0.460E+00  0.429E+00
   0.521  0.464E+00  0.432E+00
   0.541  0.469E+00  0.436E+00
   0.561  0.474E+00  0.440E+00
   0.581  0.479E+00  0.444E+00
   0.601  0.484E+00  0.447E+00
   0.621  0.489E+00  0.451E+00
   0.641  0.494E+00  0.455E+00
   0.661  0.498E+00  0.459E+00
   0.681  0.503E+00  0.462E+00
   0.701  0.507E+00  0.466E+00
   0.721  0.511E+00  0.469E+00
   0.741  0.514E+00  0.472E+00
   0.761  0.518E+00  0.474E+00
   0.781  0.521E+00  0.477E+00
   0.801  0.523E+00  0.479E+00
   0.821  0.525E+00  0.480E+00
   0.841  0.527E+00  0.482E+00
   0.861  0.528E+00  0.483E+00
   0.881  0.529E+00  0.483E+00
   0.901  0.529E+00  0.483E+00
   0.921  0.529E+00  0.483E+00
   0.941  0.528E+00  0.482E+00
   0.961  0.527E+00  0.481E+00
   0.981  0.525E+00  0.480E+00
   1.001  0.523E+00  0.478E+00
   1.021  0.521E+00  0.476E+00
   1.041  0.519E+00  0.474E+00
   1.061  0.516E+00  0.471E+00
   1.081  0.513E+00  0.469E+00
   1.101  0.510E+00  0.466E+00
   1.121  0.506E+00  0.463E+00
   1.141  0.503E+00  0.460E+00
   1.161  0.499E+00  0.457E+00
   1.181  0.496E+00  0.453E+00
   1.201  0.492E+00  0.450E+00
   1.221  0.488E+00  0.447E+00
   1.241  0.485E+00  0.443E+00
   1.261  0.481E+00  0.440E+00
   1.281  0.477E+00  0.437E+00
   1.301  0.474E+00  0.433E+00
   1.321  0.470E+00  0.430E+00
   1.341  0.467E+00  0.427E+00
   1.361  0.463E+00  0.423E+00
   1.381  0.460E+00  0.420E+00
   1.401  0.457E+00  0.417E+00
   1.421  0.454E+00  0.414E+00
   1.441  0.451E+00  0.411E+00
   1.461  0.447E+00  0.407E+00
   1.481  0.444E+00  0.404E+00
   1.501  0.441E+00  0.401E+00
   1.521  0.438E+00  0.398E+00
   1.541  0.435E+00  0.394E+00
   1.561  0.432E+00  0.391E+00
   1.581  0.428E+00  0.388E+00
   1.601  0.425E+00  0.384E+00
   1.621  0.422E+00  0.381E+00
   1.641  0.418E+00  0.377E+00
   1.661  0.414E+00  0.373E+00
   1.681  0.411E+00  0.370E+00
   1.701  0.407E+00  0.366E+00
   1.721  0.403E+00  0.362E+00
   1.741  0.399E+00  0.358E+00
   1.761  0.395E+00  0.354E+00
   1.781  0.391E+00  0.349E+00
   1.801  0.387E+00  0.345E+00
   1.821  0.383E+00  0.341E+00
   1.841  0.378E+00  0.336E+00
   1.861  0.374E+00  0.332E+00
   1.881  0.369E+00  0.327E+00
   1.901  0.365E+00  0.323E+00
   1.921  0.360E+00  0.318E+00
   1.941  0.356E+00  0.313E+00
   1.961  0.351E+00  0.309E+00
   1.981  0.347E+00  0.304E+00
   2.001  0.342E+00  0.299E+00
   2.021  0.337E+00  0.294E+00
   2.041  0.333E+00  0.289E+00
   2.061  0.328E+00  0.285E+00
   2.081  0.324E+00  0.280E+00
   2.101  0.319E+00  0.275E+00
   2.121  0.314E+00  0.270E+00
   2.141  0.310E+00  0.265E+00
   2.161  0.305E+00  0.260E+00
   2.181  0.300E+00  0.255E+00
   2.201  0.296E+00  0.250E+00
   2.221  0.291E+00  0.245E+00
   2.241  0.286E+00  0.239E+00
   2.261  0.281E+00  0.234E+00
   2.281  0.276E+00  0.229E+00
   2.301  0.271E+00  0.223E+00
   2.321  0.266E+00  0.218E+00
   2.341  0.261E+00  0.213E+00
   2.361  0.256E+00  0.207E+00
   2.381  0.251E+00  0.202E+00
   2.401  0.246E+00  0.196E+00
   2.421  0.241E+00  0.191E+00
   2.441  0.236E+00  0.185E+00
   2.461  0.231E+00  0.180E+00
   2.481  0.226E+00  0.175E+00
   2.501  0.221E+00  0.169E+00
   2.521  0.216E+00  0.164E+00
   2.541  0.211E+00  0.159E+00
   2.561  0.207E+00  0.154E+00
   2.581  0.202E+00  0.149E+00
   2.601  0.198E+00  0.145E+00
   2.621  0.194E+00  0.140E+00
   2.641  0.190E+00  0.136E+00
   2.661  0.186E+00  0.132E+00
   2.681  0.183E+00  0.128E+00
   2.701  0.180E+00  0.125E+00
   2.721  0.177E+00  0.121E+00
   2.741  0.174E+00  0.118E+00
   2.761  0.172E+00  0.116E+00
   2.781  0.170E+00  0.113E+00
   2.801  0.168E+00  0.111E+00
   2.821  0.166E+00  0.109E+00
   2.841  0.165E+00  0.107E+00
   2.861  0.163E+00  0.105E+00
   2.881  0.162E+00  0.104E+00
   2.901  0.161E+00  0.103E+00
   2.921  0.161E+00  0.102E+00
   2.941  0.160E+00  0.101E+00
   2.961  0.160E+00  0.999E-01
   2.981  0.160E+00  0.993E-01
   3.001  0.159E+00  0.989E-01
   3.021  0.159E+00  0.985E-01
   3.041  0.160E+00  0.983E-01
   3.061  0.160E+00  0.982E-01
   3.081  0.160E+00  0.981E-01
   3.101  0.161E+00  0.982E-01
   3.121  0.161E+00  0.983E-01
   3.141  0.162E+00  0.986E-01
   3.161  0.163E+00  0.990E-01
   3.181  0.163E+00  0.994E-01
   3.201  0.165E+00  0.100E+00
   3.221  0.166E+00  0.101E+00
   3.241  0.167E+00  0.102E+00
   3.261  0.169E+00  0.103E+00
   3.281  0.171E+00  0.104E+00
   3.301  0.174E+00  0.106E+00
   3.321  0.176E+00  0.108E+00
   3.341  0.179E+00  0.110E+00
   3.361  0.183E+00  0.112E+00
   3.381  0.187E+00  0.115E+00
   3.401  0.191E+00  0.119E+00
   3.421  0.196E+00  0.122E+00
   3.441  0.201E+00  0.127E+00
   3.461  0.207E+00  0.131E+00
   3.481  0.214E+00  0.136E+00
   3.501  0.221E+00  0.142E+00
   3.521  0.229E+00  0.148E+00
   3.541  0.237E+00  0.155E+00
   3.561  0.246E+00  0.162E+00
   3.581  0.255E+00  0.170E+00
   3.601  0.266E+00  0.179E+00
   3.621  0.276E+00  0.188E+00
   3.641  0.288E+00  0.197E+00
   3.661  0.300E+00  0.208E+00
   3.681  0.313E+00  0.218E+00
   3.701  0.326E+00  0.229E+00
   3.721  0.339E+00  0.241E+00
   3.741  0.353E+00  0.252E+00
   3.761  0.368E+00  0.264E+00
   3.781  0.382E+00  0.277E+00
   3.801  0.397E+00  0.289E+00
   3.821  0.412E+00  0.302E+00
   3.841  0.427E+00  0.314E+00
   3.861  0.442E+00  0.327E+00
   3.881  0.457E+00  0.339E+00
   3.901  0.472E+00  0.351E+00
   3.921  0.487E+00  0.363E+00
   3.941  0.501E+00  0.375E+00
   3.961  0.515E+00  0.386E+00
   3.981  0.528E+00  0.397E+00
   4.001  0.540E+00  0.407E+00
   4.021  0.552E+00  0.416E+00
   4.041  0.563E+00  0.425E+00
   4.061  0.574E+00  0.433E+00
   4.081  0.583E+00  0.440E+00
   4.101  0.592E+00  0.447E+00
   4.121  0.599E+00  0.452E+00
   4.141  0.606E+00  0.457E+00
   4.161  0.612E+00  0.461E+00
   4.181  0.616E+00  0.464E+00
   4.201  0.620E+00  0.467E+00
   4.221  0.623E+00  0.468E+00
   4.241  0.625E+00  0.469E+00
   4.261  0.626E+00  0.470E+00
   4.281  0.626E+00  0.469E+00
   4.301  0.626E+00  0.468E+00
   4.321  0.625E+00  0.467E+00
   4.341  0.623E+00  0.465E+00
   4.361  0.621E+00  0.462E+00
   4.381  0.618E+00  0.459E+00
   4.401  0.615E+00  0.456E+00
   4.421  0.611E+00  0.453E+00
   4.441  0.607E+00  0.449E+00
   4.461  0.602E+00  0.445E+00
   4.481  0.597E+00  0.441E+00
   4.501  0.592E+00  0.436E+00
   4.521  0.587E+00  0.432E+00
   4.541  0.581E+00  0.427E+00
   4.561  0.575E+00  0.422E+00
   4.581  0.569E+00  0.418E+00
   4.601  0.563E+00  0.413E+00
   4.621  0.556E+00  0.407E+00
   4.641  0.550E+00  0.402E+00
   4.661  0.543E+00  0.397E+00
   4.681  0.536E+00  0.392E+00
   4.701  0.528E+00  0.386E+00
   4.721  0.521E+00  0.381E+00
   4.741  0.514E+00  0.376E+00
   4.761  0.506E+00  0.370E+00
   4.781  0.499E+00  0.365E+00
   4.801  0.491E+00  0.359E+00
   4.821  0.484E+00  0.354E+00
   4.841  0.477E+00  0.349E+00
   4.861  0.470E+00  0.344E+00
   4.881  0.463E+00  0.339E+00
   4.901  0.457E+00  0.335E+00
   4.921  0.451E+00  0.331E+00
   4.941  0.445E+00  0.327E+00
   4.961  0.440E+00  0.324E+00
   4.981  0.435E+00  0.321E+00
   5.001  0.431E+00  0.318E+00
   5.021  0.428E+00  0.316E+00
   5.041  0.426E+00  0.314E+00
   5.061  0.424E+00  0.313E+00
   5.081  0.423E+00  0.313E+00
   5.101  0.422E+00  0.313E+00
   5.121  0.422E+00  0.313E+00
   5.141  0.423E+00  0.314E+00
   5.161  0.425E+00  0.316E+00
   5.181  0.427E+00  0.317E+00
   5.201  0.429E+00  0.320E+00
   5.221  0.433E+00  0.322E+00
   5.241  0.436E+00  0.325E+00
   5.261  0.440E+00  0.328E+00
   5.281  0.443E+00  0.331E+00
   5.301  0.447E+00  0.334E+00
   5.321  0.451E+00  0.337E+00
   5.341  0.455E+00  0.340E+00
   5.361  0.458E+00  0.343E+00
   5.381  0.461E+00  0.345E+00
   5.401  0.463E+00  0.347E+00
   5.421  0.465E+00  0.349E+00
   5.441  0.466E+00  0.350E+00
   5.461  0.467E+00  0.350E+00
   5.481  0.467E+00  0.350E+00
   5.501  0.466E+00  0.350E+00
   5.521  0.464E+00  0.348E+00
   5.541  0.461E+00  0.346E+00
   5.561  0.458E+00  0.344E+00
   5.581  0.454E+00  0.341E+00
   5.601  0.449E+00  0.337E+00
   5.621  0.444E+00  0.333E+00
   5.641  0.438E+00  0.329E+00
   5.661  0.432E+00  0.324E+00
   5.681  0.425E+00  0.319E+00
   5.701  0.418E+00  0.314E+00
   5.721  0.411E+00  0.309E+00
   5.741  0.404E+00  0.303E+00
   5.761  0.397E+00  0.298E+00
   5.781  0.390E+00  0.293E+00
   5.801  0.384E+00  0.288E+00
   5.821  0.378E+00  0.284E+00
   5.841  0.373E+00  0.279E+00
   5.861  0.369E+00  0.276E+00
   5.881  0.365E+00  0.273E+00
   5.901  0.362E+00  0.270E+00
   5.921  0.360E+00  0.268E+00
   5.941  0.359E+00  0.267E+00
   5.961  0.359E+00  0.267E+00
   5.981  0.359E+00  0.267E+00
   6.001  0.361E+00  0.268E+00
   6.021  0.364E+00  0.269E+00
   6.041  0.367E+00  0.272E+00
   6.061  0.372E+00  0.274E+00
   6.081  0.377E+00  0.278E+00
   6.101  0.383E+00  0.282E+00
   6.121  0.389E+00  0.286E+00
   6.141  0.397E+00  0.291E+00
   6.161  0.404E+00  0.296E+00
   6.181  0.412E+00  0.302E+00
   6.201  0.420E+00  0.308E+00
   6.221  0.429E+00  0.313E+00
   6.241  0.437E+00  0.319E+00
   6.261  0.445E+00  0.325E+00
   6.281  0.454E+00  0.331E+00
   6.301  0.462E+00  0.337E+00
   6.321  0.469E+00  0.342E+00
   6.341  0.477E+00  0.348E+00
   6.361  0.483E+00  0.353E+00
   6.381  0.490E+00  0.357E+00
   6.401  0.496E+00  0.362E+00
   6.421  0.501E+00  0.366E+00
   6.441  0.506E+00  0.369E+00
   6.461  0.510E+00  0.373E+00
   6.481  0.514E+00  0.376E+00
   6.501  0.517E+00  0.378E+00
   6.521  0.520E+00  0.380E+00
   6.541  0.523E+00  0.382E+00
   6.561  0.524E+00  0.384E+00
   6.581  0.526E+00  0.385E+00
   6.601  0.528E+00  0.387E+00
   6.621  0.529E+00  0.388E+00
   6.641  0.530E+00  0.389E+00
   6.661  0.531E+00  0.390E+00
   6.681  0.533E+00  0.391E+00
   6.701  0.534E+00  0.392E+00
   6.721  0.536E+00  0.393E+00
   6.741  0.538E+00  0.395E+00
   6.761  0.540E+00  0.397E+00
   6.781  0.543E+00  0.399E+00
   6.801  0.546E+00  0.401E+00
   6.821  0.550E+00  0.403E+00
   6.841  0.554E+00  0.406E+00
   6.861  0.559E+00  0.409E+00
   6.881  0.564E+00  0.412E+00
   6.901  0.570E+00  0.415E+00
   6.921  0.576E+00  0.419E+00
   6.941  0.582E+00  0.422E+00
   6.961  0.588E+00  0.426E+00
   6.981  0.595E+00  0.430E+00
   7.001  0.602E+00  0.434E+00
   7.021  0.609E+00  0.438E+00
   7.041  0.616E+00  0.442E+00
   7.061  0.623E+00  0.445E+00
   7.081  0.629E+00  0.448E+00
   7.101  0.635E+00  0.451E+00
   7.121  0.641E+00  0.454E+00
   7.141  0.646E+00  0.456E+00
   7.161  0.651E+00  0.458E+00
   7.181  0.655E+00  0.459E+00
   7.201  0.658E+00  0.460E+00
   7.221  0.661E+00  0.461E+00
   7.241  0.663E+00  0.460E+00
   7.261  0.664E+00  0.460E+00
   7.281  0.664E+00  0.458E+00
   7.301  0.664E+00  0.457E+00
   7.321  0.663E+00  0.454E+00
   7.341  0.661E+00  0.451E+00
   7.361  0.658E+00  0.448E+00
   7.381  0.654E+00  0.444E+00
   7.401  0.650E+00  0.440E+00
   7.421  0.646E+00  0.436E+00
   7.441  0.641E+00  0.431E+00
   7.461  0.635E+00  0.426E+00
   7.481  0.629E+00  0.420E+00
   7.501  0.623E+00  0.415E+00
   7.521  0.616E+00  0.409E+00
   7.541  0.609E+00  0.403E+00
   7.561  0.603E+00  0.397E+00
   7.581  0.596E+00  0.391E+00
   7.601  0.589E+00  0.385E+00
   7.621  0.582E+00  0.380E+00
   7.641  0.576E+00  0.374E+00
   7.661  0.569E+00  0.368E+00
   7.681  0.563E+00  0.363E+00
   7.701  0.558E+00  0.357E+00
   7.721  0.552E+00  0.352E+00
   7.741  0.547E+00  0.347E+00
   7.761  0.543E+00  0.343E+00
   7.781  0.539E+00  0.338E+00
   7.801  0.535E+00  0.334E+00
   7.821  0.532E+00  0.330E+00
   7.841  0.530E+00  0.326E+00
   7.861  0.528E+00  0.323E+00
   7.881  0.526E+00  0.320E+00
   7.901  0.525E+00  0.317E+00
   7.921  0.525E+00  0.315E+00
   7.941  0.525E+00  0.312E+00
   7.961  0.525E+00  0.310E+00
   7.981  0.526E+00  0.309E+00
   8.001  0.528E+00  0.307E+00
   8.021  0.529E+00  0.306E+00
   8.041  0.531E+00  0.305E+00
   8.061  0.534E+00  0.304E+00
   8.081  0.536E+00  0.303E+00
   8.101  0.539E+00  0.302E+00
   8.121  0.542E+00  0.302E+00
   8.141  0.544E+00  0.301E+00
   8.161  0.547E+00  0.301E+00
   8.181  0.550E+00  0.300E+00
   8.201  0.553E+00  0.300E+00
   8.221  0.555E+00  0.300E+00
   8.241  0.558E+00  0.299E+00
   8.261  0.560E+00  0.299E+00
   8.281  0.562E+00  0.298E+00
   8.301  0.563E+00  0.298E+00
   8.321  0.564E+00  0.297E+00
   8.341  0.565E+00  0.296E+00
   8.361  0.565E+00  0.295E+00
   8.381  0.565E+00  0.294E+00
   8.401  0.564E+00  0.293E+00
   8.421  0.563E+00  0.292E+00
   8.441  0.561E+00  0.290E+00
   8.461  0.560E+00  0.289E+00
   8.481  0.557E+00  0.287E+00
   8.501  0.555E+00  0.286E+00
   8.521  0.552E+00  0.284E+00
   8.541  0.549E+00  0.283E+00
   8.561  0.545E+00  0.281E+00
   8.581  0.541E+00  0.279E+00
   8.601  0.538E+00  0.277E+00
   8.621  0.534E+00  0.276E+00
